LabVIEW Measurement	
Writer_Version	2
Reader_Version	2
Separator	Tab
Decimal_Separator	,
Multi_Headings	No
X_Columns	No
Time_Pref	Relative
Operator	r.aimaev
Date	2024/12/19
Time	09:00:44,9580636024475097657
***End_of_Header***	
	
Channels	6						
Samples	1255	1255	1255	1255	1255	1255	
Date	2024/12/19	2024/12/19	2024/12/19	2024/12/19	2024/12/19	2024/12/19	
Time	09:00:44,9580636024475097657	09:00:44,9580636024475097657	09:00:44,9580636024475097657	09:00:44,9580636024475097657	09:00:44,9580636024475097657	09:00:44,9580636024475097657	
X_Dimension	Time	Time	Time	Time	Time	Time	
X0	0,0000000000000000E+0	0,0000000000000000E+0	0,0000000000000000E+0	0,0000000000000000E+0	0,0000000000000000E+0	0,0000000000000000E+0	
Delta_X	1,000000	1,000000	1,000000	1,000000	1,000000	1,000000	
***End_of_Header***							
X_Value	Time, s	X1 position, mm	Y1 position, mm	X2 position, mm	Y2 position, mm	Signal, Volt	Comment
	0,000000	0,000000	20,000000	0,000000	20,000000	-3,299867E-7	1й интеграл поля I_x: -4.1213E-5:SENS:CHAN 2, :SYST:AZER:STAT ON, :SENS:VOLT:CHAN2:LPAS:STAT OFF, :SENS:VOLT:CHAN2:DFIL:STAT OFF, :SENS:VOLT:CHAN2:DFIL:WIND 0.01, :SENS:VOLT:CHAN2:DFIL:COUN 10, :SENS:VOLT:CHAN2:DFIL:TCON MOV, :SENS:VOLT:DC:NPLC 1.00, :sens:volt:chan2:rang:upp 0.000000, Верт. перемещ. 1, мм: 5.00E+0, Скорость верт. 1, мм/с: 1.00E+0, Гориз. перемещ. 1, мм: 5.00E+0, Скорость гориз. 1, мм/с: 1.00E+0, Верт. перемещ. 2, мм: 5.00E+0, Скорость верт. 2, мм/с: 1.00E+0, Гориз. перемещ. 2, мм: 5.00E+0, Скорость гориз. 2, мм/с: 1.00E+0, Сбор данных после остан. движ., с: 2.00E+0, Дата и время: 19.12.2024 08:51:58, ФИО: , Зав. № магн.: , Обозначение магн.: , Тип магн.: , Длина магн., мм: 50.00, Диаметр апертуры, мм: 0.00, Параметры нити: , Коорд. геом. центра системы: , Внутр. темпер. при последней калибровке: 2.56E+1, Внутр. темпер. до измерений: 2.59E+1, Внутр. темпер. после измерений: 2.60E+1
	0,087001	0,065000	20,001250	0,068750	20,001250	-7,934609E-8
	0,176003	0,157500	20,000000	0,162500	20,000000	-2,212181E-7
	0,263006	0,258750	19,998750	0,263750	19,998750	-3,867355E-7
	0,401008	0,361250	19,997500	0,366250	19,997500	-2,732379E-7
	0,491009	0,463750	19,996250	0,468750	19,996250	-4,671296E-7
	0,581010	0,565000	19,993750	0,570000	19,992500	-1,833856E-7
	0,670011	0,660000	19,990000	0,665000	19,990000	-2,401344E-7
	0,784016	0,758750	19,986250	0,762500	19,986250	-2,212181E-7
	0,874015	0,878750	19,982500	0,882500	19,982500	9,090035E-8
	0,963017	0,983750	19,977500	0,987500	19,977500	1,050876E-7
	1,053019	1,083750	19,972500	1,088750	19,972500	-1,313914E-8
	1,166019	1,178750	19,967500	1,182500	19,967500	1,240038E-7
	1,255022	1,275000	19,961250	1,278750	19,961250	6,252594E-8
	1,345022	1,397500	19,952500	1,402500	19,953750	-6,515888E-8
	1,434025	1,493750	19,946250	1,497500	19,946250	-6,042982E-8
	1,550027	1,593750	19,937500	1,597500	19,938750	-1,502821E-7
	1,638030	1,692500	19,930000	1,696250	19,931250	1,050620E-8
	1,727030	1,787500	19,922500	1,791250	19,922500	-1,313914E-8
	1,816032	1,887500	19,912500	1,891250	19,912500	-2,306762E-7
	1,931034	2,010000	19,901250	2,013750	19,901250	-2,212181E-7
	2,021034	2,106250	19,890000	2,110000	19,891250	-4,671296E-7
	2,021034	2,201250	19,881250	2,205000	19,880000	6,224508E-6
	2,127035	2,298750	19,870000	2,302500	19,870000	1,274120E-5
	2,223036	2,398750	19,857500	2,401250	19,858750	1,259933E-5
	2,324039	2,493750	19,846250	2,497500	19,847500	1,361608E-5
	2,423040	2,588750	19,835000	2,592500	19,835000	1,302495E-5
	2,525043	2,706250	19,818750	2,711250	19,818750	1,114750E-5
	2,627043	2,805000	19,805000	2,808750	19,805000	1,355933E-5
	2,723046	2,900000	19,790000	2,902500	19,792500	1,329451E-5
	2,822046	3,000000	19,776250	3,002500	19,777500	1,167716E-5
	2,944050	3,121250	19,757500	3,125000	19,758750	1,354515E-5
	3,046054	3,215000	19,742500	3,220000	19,743750	1,408426E-5
	3,150054	3,313750	19,726250	3,317500	19,727500	1,181430E-5
	3,245056	3,406250	19,710000	3,411250	19,711250	1,155893E-5
	3,340058	3,530000	19,688750	3,535000	19,690000	1,146907E-5
	3,464060	3,628750	19,671250	3,632500	19,672500	1,426397E-5
	3,560061	3,723750	19,653750	3,726250	19,655000	1,611305E-5
	3,656062	3,821250	19,635000	3,823750	19,635000	1,438220E-5
	3,757065	3,943750	19,611250	3,947500	19,612500	1,214534E-5
	3,855067	4,038750	19,591250	4,042500	19,592500	1,317628E-5
	3,954068	4,136250	19,571250	4,140000	19,572500	1,437747E-5
	4,078071	4,233750	19,550000	4,237500	19,551250	1,214061E-5
	4,176071	4,331250	19,528750	4,335000	19,530000	9,922661E-6
	4,271074	4,427500	19,507500	4,431250	19,507500	1,247637E-5
	4,366077	4,568750	19,475000	4,572500	19,476250	1,276958E-5
	4,467076	4,666250	19,452500	4,670000	19,453750	1,425924E-5
	4,565077	4,758750	19,430000	4,762500	19,430000	1,480782E-5
	4,661080	4,853750	19,406250	4,858750	19,407500	1,397077E-5
	4,781082	4,952500	19,381250	4,956250	19,382500	1,131301E-5
	4,879081	5,046250	19,357500	5,050000	19,357500	1,189469E-5
	4,974600	5,142500	19,332500	5,146250	19,332500	1,172918E-5
	5,073600	5,257500	19,301250	5,262500	19,302500	1,138868E-5
	5,196604	5,353750	19,275000	5,357500	19,275000	1,226356E-5
	5,295606	5,451250	19,247500	5,455000	19,248750	1,152109E-5
	5,391607	5,546250	19,220000	5,550000	19,221250	1,349313E-5
	5,490609	5,666250	19,185000	5,670000	19,187500	1,177174E-5
	5,613611	5,757500	19,157500	5,762500	19,160000	1,436328E-5
	5,711612	5,852500	19,130000	5,856250	19,130000	1,169134E-5
	5,809614	5,948750	19,100000	5,952500	19,101250	1,282633E-5
	5,906619	6,063750	19,063750	6,067500	19,065000	9,676753E-6
	6,031617	6,157500	19,032500	6,162500	19,035000	1,470852E-5
	6,128624	6,252500	19,002500	6,256250	19,003750	1,133194E-5
	6,227623	6,343750	18,972500	6,347500	18,973750	1,207914E-5
	6,330623	6,461250	18,932500	6,465000	18,935000	1,524763E-5
	6,428625	6,556250	18,900000	6,560000	18,901250	1,236288E-5
	6,527626	6,646250	18,868750	6,650000	18,870000	1,010237E-5
	6,672627	6,742500	18,835000	6,746250	18,836250	1,009291E-5
	6,771629	6,853750	18,795000	6,857500	18,796250	1,019223E-5
	6,869635	6,943750	18,761250	6,947500	18,762500	9,728773E-6
	6,966636	7,036250	18,727500	7,040000	18,728750	1,014021E-5
	7,067636	7,128750	18,692500	7,132500	18,693750	9,899021E-6
	7,165637	7,222500	18,656250	7,226250	18,657500	1,196564E-5
	7,262640	7,311250	18,621250	7,316250	18,622500	1,115696E-5
	7,385643	7,403750	18,585000	7,407500	18,586250	9,932125E-6
	7,484644	7,516250	18,540000	7,520000	18,542500	9,582171E-6
	7,583646	7,605000	18,503750	7,608750	18,505000	1,089213E-5
	7,681647	7,696250	18,466250	7,700000	18,467500	1,169135E-5
	7,806647	7,788750	18,427500	7,792500	18,430000	1,002198E-5
	7,905651	7,898750	18,381250	7,902500	18,382500	9,790252E-6
	8,003654	7,991250	18,341250	7,993750	18,342500	9,766606E-6
	8,101653	8,078750	18,302500	8,081250	18,305000	1,073134E-5
	8,224655	8,170000	18,262500	8,173750	18,263750	1,139342E-5
	8,322661	8,283750	18,210000	8,288750	18,212500	7,340578E-6
	8,421658	8,370000	18,171250	8,373750	18,172500	9,813897E-6
	8,519661	8,460000	18,130000	8,463750	18,131250	1,188524E-5
	8,641662	8,547500	18,088750	8,551250	18,090000	9,624733E-6
	8,742667	8,658750	18,035000	8,663750	18,037500	7,175059E-6
	8,840666	8,746250	17,993750	8,748750	17,996250	1,089686E-5
	8,938668	8,837500	17,950000	8,840000	17,951250	9,965229E-6
	9,059673	8,925000	17,906250	8,927500	17,907500	8,806599E-6
	9,155673	9,032500	17,852500	9,036250	17,853750	1,127992E-5
	9,253673	9,121250	17,806250	9,125000	17,808750	8,622164E-6
	9,352675	9,205000	17,762500	9,208750	17,765000	7,704718E-6
	9,453677	9,293750	17,717500	9,297500	17,718750	9,752419E-6
	9,551678	9,405000	17,658750	9,408750	17,661250	9,279509E-6
	9,646681	9,492500	17,611250	9,496250	17,613750	8,645809E-6
	9,768682	9,576250	17,566250	9,580000	17,568750	7,506096E-6
	9,865684	9,660000	17,520000	9,663750	17,522500	7,435160E-6
	9,963687	9,768750	17,460000	9,772500	17,462500	8,404625E-6
	10,061687	9,851250	17,412500	9,855000	17,415000	8,882264E-6
	10,183688	9,940000	17,363750	9,943750	17,366250	8,943743E-6
	10,281692	10,025000	17,315000	10,028750	17,316250	8,953201E-6
	10,379693	10,133750	17,251250	10,137500	17,253750	7,789842E-6
	10,476693	10,216250	17,203750	10,220000	17,205000	8,986305E-6
	10,602698	10,300000	17,152500	10,303750	17,155000	7,373681E-6
	10,701697	10,386250	17,101250	10,391250	17,102500	8,674184E-6
	10,796700	10,488750	17,037500	10,492500	17,040000	7,752009E-6
	10,895706	10,573750	16,986250	10,577500	16,987500	6,465694E-6
	11,019707	10,653750	16,935000	10,657500	16,937500	6,664316E-6
	11,116704	10,740000	16,881250	10,743750	16,883750	7,718906E-6
	11,215709	10,846250	16,813750	10,848750	16,816250	9,166011E-6
	11,314709	10,923750	16,762500	10,927500	16,765000	5,661747E-6
	11,434711	11,007500	16,707500	11,011250	16,710000	6,763627E-6
	11,532712	11,088750	16,655000	11,091250	16,657500	5,316523E-6
	11,631714	11,187500	16,588750	11,191250	16,591250	5,534061E-6
	11,728720	11,270000	16,532500	11,273750	16,535000	8,272211E-6
	11,852720	11,352500	16,476250	11,356250	16,478750	3,510015E-6
	11,951719	11,431250	16,421250	11,433750	16,423750	1,131775E-5
	12,048722	11,570000	16,325000	11,573750	16,326250	3,041836E-6
	12,146722	11,648750	16,268750	11,651250	16,271250	4,914549E-6
	12,268724	11,730000	16,210000	11,732500	16,212500	3,855237E-6
	12,366727	11,810000	16,152500	11,812500	16,155000	4,758490E-6
	12,464731	11,905000	16,081250	11,908750	16,083750	9,766606E-6
	12,563734	11,986250	16,022500	11,990000	16,025000	2,218978E-6
	12,687731	12,066250	15,961250	12,070000	15,963750	4,493662E-6
	12,786734	12,138750	15,907500	12,142500	15,908750	1,363015E-6
	12,885736	12,238750	15,830000	12,242500	15,832500	6,361654E-6
	12,983736	12,317500	15,768750	12,320000	15,772500	2,015627E-6
	13,103740	12,390000	15,711250	12,393750	15,713750	6,867668E-6
	13,201741	12,470000	15,648750	12,473750	15,651250	1,869026E-6
	13,299744	12,567500	15,570000	12,571250	15,573750	1,708238E-6
	13,399745	12,641250	15,510000	12,645000	15,512500	8,603248E-6
	13,522746	12,715000	15,451250	12,718750	15,453750	6,640671E-6
	13,618752	12,791250	15,387500	12,793750	15,390000	4,157898E-6
	13,716748	12,887500	15,307500	12,890000	15,310000	1,864297E-6
	13,812750	12,960000	15,245000	12,963750	15,247500	4,470016E-6
	13,936753	13,036250	15,181250	13,038750	15,183750	3,112772E-6
	14,034756	13,111250	15,115000	13,115000	15,118750	5,690122E-6
	14,132758	13,202500	15,035000	13,206250	15,038750	3,117501E-6
	14,229760	13,276250	14,971250	13,280000	14,973750	3,841050E-6
	14,396760	13,348750	14,907500	13,351250	14,910000	2,223707E-6
	14,495765	13,422500	14,840000	13,425000	14,843750	4,342331E-6
	14,593764	13,515000	14,757500	13,517500	14,760000	-5,995501E-7
	14,691766	13,590000	14,688750	13,592500	14,691250	1,481242E-6
	14,815767	13,657500	14,625000	13,661250	14,627500	2,256810E-6
	14,912769	13,731250	14,556250	13,735000	14,557500	2,483806E-6
	15,011770	13,822500	14,468750	13,825000	14,472500	3,514744E-6
	15,106773	13,890000	14,403750	13,893750	14,407500	1,292079E-6
	15,229776	13,962500	14,333750	13,965000	14,337500	2,885777E-6
	15,327777	14,030000	14,268750	14,032500	14,271250	2,753285E-7
	15,423779	14,120000	14,180000	14,122500	14,182500	3,675532E-6
	15,522780	14,191250	14,107500	14,193750	14,111250	-1,436596E-6
	15,647781	14,260000	14,037500	14,263750	14,041250	1,263705E-6
	15,744787	14,326250	13,966250	14,328750	13,973750	1,996711E-6
	15,841785	14,415000	13,880000	14,417500	13,883750	-1,507532E-6
	15,940787	14,478750	13,812500	14,481250	13,815000	3,268832E-6
	16,063792	14,548750	13,738750	14,551250	13,742500	-9,967922E-7
	16,161795	14,613750	13,671250	14,616250	13,673750	-1,138664E-6
	16,260793	14,698750	13,578750	14,702500	13,581250	6,158217E-7
	16,358794	14,763750	13,508750	14,766250	13,511250	1,995850E-8
	16,480796	14,826250	13,438750	14,831250	13,441250	-3,867418E-7
	16,578801	14,895000	13,363750	14,897500	13,366250	-9,163980E-7
	16,676799	14,977500	13,271250	14,980000	13,273750	-7,887130E-7
	16,775802	15,041250	13,200000	15,043750	13,202500	-1,412951E-6
	16,898803	15,106250	13,125000	15,110000	13,127500	-2,354036E-6
	16,997805	15,168750	13,052500	15,171250	13,056250	-4,813233E-7
	17,095808	15,247500	12,961250	15,248750	12,965000	-8,218165E-7
	17,194812	15,307500	12,888750	15,310000	12,892500	-2,037188E-6
	17,317812	15,368750	12,816250	15,372500	12,820000	-2,018272E-6
	17,415812	15,430000	12,742500	15,432500	12,745000	-2,391869E-6
	17,513814	15,508750	12,646250	15,511250	12,650000	-1,928420E-6
	17,609821	15,568750	12,573750	15,571250	12,577500	-1,975710E-6
	17,733819	15,631250	12,496250	15,633750	12,498750	-1,881129E-6
	17,833819	15,691250	12,420000	15,693750	12,422500	-2,443889E-6
	17,931823	15,768750	12,322500	15,771250	12,326250	-2,467534E-6
	18,030821	15,826250	12,247500	15,828750	12,251250	-2,968816E-6
	18,151825	15,887500	12,167500	15,890000	12,171250	-2,249997E-6
	18,248827	15,947500	12,088750	15,950000	12,092500	-4,718573E-6
	18,346833	16,020000	11,992500	16,023750	11,996250	-1,006250E-6
	18,445830	16,080000	11,912500	16,081250	11,916250	-2,817485E-6
	18,566833	16,140000	11,831250	16,142500	11,835000	8,239010E-7
	18,664835	16,198750	11,751250	16,201250	11,755000	-6,184586E-6
	18,759836	16,253750	11,675000	16,256250	11,678750	-5,267145E-6
	18,858837	16,325000	11,576250	16,326250	11,578750	-1,947336E-6
	18,982839	16,381250	11,495000	16,383750	11,498750	-6,619660E-6
	19,079841	16,440000	11,412500	16,441250	11,416250	-2,108124E-6
	19,178843	16,496250	11,331250	16,497500	11,335000	-4,373350E-6
	19,274845	16,562500	11,232500	16,565000	11,236250	-6,203502E-6
	19,394847	16,616250	11,155000	16,618750	11,157500	-2,897880E-6
	19,489848	16,671250	11,070000	16,675000	11,073750	-6,175127E-6
	19,584850	16,723750	10,991250	16,726250	10,995000	-3,314038E-6
	19,680849	16,792500	10,886250	16,795000	10,890000	-7,220253E-6
	19,802853	16,847500	10,803750	16,848750	10,806250	-5,574535E-6
	19,900857	16,902500	10,713750	16,905000	10,717500	-3,947734E-6
	19,996858	16,953750	10,632500	16,956250	10,636250	-7,111484E-6
	20,093860	17,006250	10,548750	17,008750	10,552500	-6,326458E-6
	20,217860	17,082500	10,426250	17,085000	10,428750	-4,888819E-6
	20,315862	17,135000	10,338750	17,137500	10,342500	-8,383605E-6
	20,412865	17,187500	10,253750	17,188750	10,257500	-7,234440E-6
	20,511868	17,235000	10,172500	17,237500	10,176250	-5,531973E-6
	20,634868	17,296250	10,067500	17,298750	10,072500	-4,945568E-6
	20,733871	17,346250	9,981250	17,348750	9,985000	-9,684100E-6
	20,833872	17,395000	9,896250	17,397500	9,900000	-6,993257E-6
	20,932872	17,442500	9,812500	17,445000	9,816250	-6,761532E-6
	21,028875	17,503750	9,703750	17,505000	9,706250	-6,454143E-6
	21,150877	17,548750	9,621250	17,551250	9,625000	-4,874632E-6
	21,249879	17,597500	9,533750	17,598750	9,537500	-6,416310E-6
	21,347879	17,642500	9,448750	17,645000	9,452500	-1,270125E-5
	21,445883	17,701250	9,337500	17,702500	9,341250	-7,470893E-6
	21,567884	17,745000	9,255000	17,747500	9,258750	-4,411183E-6
	21,665887	17,791250	9,166250	17,792500	9,170000	-1,149533E-5
	21,761887	17,835000	9,080000	17,836250	9,083750	-7,598578E-6
	21,860889	17,891250	8,970000	17,892500	8,973750	-7,135118E-6
	21,985892	17,933750	8,882500	17,936250	8,887500	-7,697877E-6
	22,082893	17,977500	8,796250	17,978750	8,800000	-6,818270E-6
	22,185895	18,020000	8,708750	18,021250	8,712500	-9,613150E-6
	22,284897	18,073750	8,597500	18,075000	8,601250	-6,945955E-6
	22,382899	18,116250	8,507500	18,117500	8,511250	-7,276990E-6
	22,530902	18,156250	8,421250	18,157500	8,425000	-1,017591E-5
	22,628906	18,197500	8,330000	18,200000	8,333750	-1,282892E-5
	22,726903	18,247500	8,220000	18,250000	8,223750	-9,632066E-6
	22,823908	18,288750	8,128750	18,291250	8,132500	-1,298970E-5
	22,946908	18,328750	8,036250	18,331250	8,041250	-8,331572E-6
	23,044911	18,370000	7,945000	18,371250	7,950000	-1,037453E-5
	23,140910	18,408750	7,853750	18,408750	7,857500	-9,461820E-6
	23,238912	18,446250	7,765000	18,447500	7,768750	-1,378892E-5
	23,362914	18,492500	7,655000	18,493750	7,658750	-9,840145E-6
	23,459918	18,530000	7,563750	18,531250	7,567500	-1,023266E-5
	23,558918	18,566250	7,473750	18,567500	7,477500	-9,565859E-6
	23,654920	18,601250	7,385000	18,602500	7,390000	-1,265394E-5
	23,777921	18,647500	7,270000	18,648750	7,273750	-8,936893E-6
	23,874924	18,682500	7,177500	18,685000	7,180000	-1,186892E-5
	23,973924	18,718750	7,085000	18,720000	7,088750	-1,207699E-5
	24,068926	18,752500	6,995000	18,753750	6,998750	-1,243167E-5
	24,191928	18,796250	6,877500	18,797500	6,880000	-1,209118E-5
	24,288930	18,830000	6,783750	18,831250	6,787500	-1,237493E-5
	24,386931	18,862500	6,693750	18,863750	6,697500	-9,230095E-6
	24,484934	18,895000	6,598750	18,896250	6,602500	-1,375108E-5
	24,605937	18,935000	6,482500	18,937500	6,486250	-1,051167E-5
	24,706938	18,967500	6,391250	18,967500	6,395000	-1,381729E-5
	24,805939	18,997500	6,297500	18,998750	6,302500	-1,072448E-5
	24,903941	19,027500	6,207500	19,028750	6,211250	-1,150478E-5
	25,026943	19,066250	6,087500	19,067500	6,091250	-1,087581E-5
	25,124947	19,095000	5,997500	19,096250	6,001250	-1,498537E-5
	25,222946	19,125000	5,902500	19,126250	5,906250	-1,219049E-5
	25,322949	19,152500	5,810000	19,153750	5,813750	-1,059680E-5
	25,420951	19,188750	5,691250	19,190000	5,695000	-1,306064E-5
	25,518951	19,217500	5,595000	19,218750	5,598750	-1,243167E-5
	25,639955	19,243750	5,505000	19,243750	5,507500	-1,392133E-5
	25,736955	19,270000	5,407500	19,271250	5,411250	-1,337749E-5
	25,833956	19,302500	5,292500	19,303750	5,296250	-1,305118E-5
	25,930958	19,328750	5,195000	19,330000	5,200000	-1,204389E-5
	26,054963	19,352500	5,105000	19,355000	5,107500	-1,254044E-5
	26,152965	19,376250	5,012500	19,377500	5,017500	-1,363759E-5
	26,251964	19,407500	4,895000	19,407500	4,898750	-1,229453E-5
	26,349969	19,431250	4,798750	19,432500	4,802500	-1,165138E-5
	26,473968	19,455000	4,703750	19,456250	4,706250	-1,404429E-5
	26,572969	19,477500	4,608750	19,477500	4,613750	-1,267286E-5
	26,669972	19,500000	4,512500	19,501250	4,516250	-1,261138E-5
	26,767973	19,527500	4,395000	19,527500	4,398750	-1,458340E-5
	26,890975	19,547500	4,301250	19,548750	4,305000	-1,347207E-5
	26,988975	19,567500	4,207500	19,568750	4,212500	-1,174123E-5
	27,088978	19,588750	4,111250	19,588750	4,115000	-1,371325E-5
	27,184983	19,613750	3,990000	19,613750	3,993750	-1,485296E-5
	27,307983	19,632500	3,896250	19,633750	3,901250	-1,334438E-5
	27,404984	19,651250	3,798750	19,652500	3,802500	-1,332547E-5
	27,501985	19,670000	3,701250	19,671250	3,703750	-1,471109E-5
	27,599988	19,701250	3,531250	19,702500	3,535000	-1,560488E-5
	27,723991	19,718750	3,433750	19,718750	3,438750	-1,455503E-5
	27,822991	19,735000	3,338750	19,736250	3,342500	-1,232291E-5
	27,919992	19,751250	3,241250	19,751250	3,245000	-1,593591E-5
	28,016996	19,770000	3,123750	19,771250	3,127500	-1,606360E-5
	28,138998	19,785000	3,028750	19,785000	3,032500	-1,454084E-5
	28,236998	19,800000	2,931250	19,800000	2,935000	-1,344370E-5
	28,332999	19,815000	2,831250	19,815000	2,835000	-1,536370E-5
	28,429001	19,831250	2,712500	19,831250	2,717500	-1,674931E-5
	28,549003	19,845000	2,613750	19,845000	2,618750	-1,358084E-5
	28,646005	19,857500	2,513750	19,857500	2,517500	-1,442261E-5
	28,747007	19,868750	2,421250	19,868750	2,425000	-1,454557E-5
	28,843008	19,883750	2,296250	19,883750	2,301250	-1,550557E-5
	28,942013	19,893750	2,202500	19,895000	2,205000	-1,721276E-5
	29,065012	19,905000	2,103750	19,905000	2,107500	-1,203443E-5
	29,161015	19,915000	2,008750	19,916250	2,012500	-1,671621E-5
	29,256015	19,927500	1,883750	19,927500	1,888750	-1,577986E-5
	29,354016	19,936250	1,786250	19,936250	1,791250	-1,685334E-5
	29,479023	19,945000	1,690000	19,945000	1,693750	-1,354772E-5
	29,576022	19,952500	1,595000	19,952500	1,600000	-1,407265E-5
	29,674022	19,962500	1,468750	19,962500	1,473750	-1,532112E-5
	29,772026	19,968750	1,375000	19,968750	1,378750	-1,550556E-5
	29,943026	19,975000	1,276250	19,975000	1,280000	-1,518398E-5
	30,042028	19,981250	1,175000	19,981250	1,178750	-1,201551E-5
	30,141034	19,987500	1,052500	19,988750	1,055000	-1,540625E-5
	30,238032	19,993750	0,956250	19,993750	0,960000	-1,650812E-5
	30,360034	19,997500	0,860000	19,997500	0,865000	-1,424290E-5
	30,457036	20,001250	0,766250	20,001250	0,770000	-1,527856E-5
	30,556036	20,005000	0,641250	20,006250	0,646250	-1,723167E-5
	30,653039	20,008750	0,540000	20,008750	0,545000	-1,444625E-5
	30,776042	20,011250	0,446250	20,011250	0,451250	-1,673984E-5
	30,874043	20,012500	0,346250	20,012500	0,351250	-1,678241E-5
	30,973046	20,015000	0,226250	20,015000	0,230000	-1,664999E-5
	31,069046	20,015000	0,127500	20,015000	0,130000	-1,532112E-5
	31,192048	20,016250	0,030000	20,016250	0,033750	-1,396388E-5
	31,290052	20,016250	-0,068750	20,016250	-0,063750	-1,491442E-5
	31,388056	20,015000	-0,168750	20,015000	-0,163750	-1,616763E-5
	31,486054	20,013750	-0,268750	20,013750	-0,265000	-1,715127E-5
	31,608055	20,012500	-0,368750	20,012500	-0,363750	-1,459285E-5
	31,703057	20,010000	-0,465000	20,010000	-0,460000	-1,382201E-5
	31,802058	20,007500	-0,588750	20,007500	-0,583750	-1,485768E-5
	31,901059	20,005000	-0,685000	20,003750	-0,680000	-1,508940E-5
	32,023062	20,000000	-0,777500	20,001250	-0,773750	-1,643718E-5
	32,122064	19,996250	-0,878750	19,996250	-0,875000	-1,579403E-5
	32,220068	19,991250	-0,997500	19,991250	-0,995000	-1,560014E-5
	32,319069	19,986250	-1,095000	19,986250	-1,091250	-1,597846E-5
	32,442070	19,981250	-1,188750	19,980000	-1,185000	-1,706142E-5
	32,539071	19,973750	-1,288750	19,973750	-1,283750	-1,595482E-5
	32,635079	19,966250	-1,412500	19,966250	-1,407500	-1,634733E-5
	32,730075	19,958750	-1,512500	19,958750	-1,508750	-1,661689E-5
	32,854076	19,951250	-1,612500	19,951250	-1,608750	-1,571364E-5
	32,952081	19,942500	-1,711250	19,942500	-1,707500	-1,660270E-5
	33,050081	19,932500	-1,831250	19,931250	-1,827500	-1,551975E-5
	33,149083	19,922500	-1,930000	19,922500	-1,926250	-1,567580E-5
	33,270083	19,912500	-2,025000	19,913750	-2,022500	-1,599738E-5
	33,365087	19,903750	-2,121250	19,902500	-2,117500	-1,587915E-5
	33,466088	19,890000	-2,245000	19,890000	-2,241250	-1,617236E-5
	33,561091	19,878750	-2,342500	19,877500	-2,338750	-1,587915E-5
	33,659091	19,866250	-2,442500	19,866250	-2,438750	-1,671147E-5
	33,763092	19,853750	-2,542500	19,853750	-2,538750	-1,601157E-5
	33,862093	19,841250	-2,637500	19,841250	-2,632500	-1,558122E-5
	33,958095	19,825000	-2,760000	19,823750	-2,755000	-1,573255E-5
	34,082103	19,810000	-2,860000	19,810000	-2,855000	-1,721748E-5
	34,180099	19,797500	-2,953750	19,796250	-2,948750	-1,590280E-5
	34,276101	19,781250	-3,052500	19,781250	-3,047500	-1,621492E-5
	34,375105	19,762500	-3,170000	19,762500	-3,167500	-1,521236E-5
	34,495107	19,747500	-3,270000	19,746250	-3,266250	-1,543462E-5
	34,591110	19,730000	-3,368750	19,728750	-3,365000	-1,598792E-5
	34,687107	19,715000	-3,461250	19,713750	-3,456250	-1,621019E-5
	34,785110	19,685000	-3,623750	19,685000	-3,620000	-1,723640E-5
	34,908112	19,667500	-3,722500	19,666250	-3,718750	-1,510359E-5
	35,010116	19,648750	-3,820000	19,647500	-3,816250	-1,370378E-5
	35,108115	19,628750	-3,918750	19,628750	-3,915000	-1,419088E-5
	35,207119	19,605000	-4,037500	19,603750	-4,032500	-1,367068E-5
	35,330123	19,585000	-4,133750	19,583750	-4,128750	-1,593117E-5
	35,427120	19,562500	-4,232500	19,562500	-4,227500	-1,555758E-5
	35,525126	19,542500	-4,325000	19,541250	-4,321250	-1,506103E-5
	35,621126	19,517500	-4,441250	19,516250	-4,437500	-1,484349E-5
	35,744129	19,495000	-4,538750	19,493750	-4,535000	-1,623856E-5
	35,844128	19,472500	-4,632500	19,471250	-4,628750	-1,639462E-5
	35,944128	19,450000	-4,722500	19,450000	-4,718750	-1,628585E-5
	36,043131	19,421250	-4,843750	19,420000	-4,841250	-1,537787E-5
	36,142133	19,396250	-4,942500	19,395000	-4,937500	-1,636152E-5
	36,265135	19,371250	-5,038750	19,370000	-5,030000	-1,558122E-5
	36,363140	19,347500	-5,132500	19,345000	-5,127500	-1,275324E-5
	36,462139	19,315000	-5,250000	19,313750	-5,247500	-1,316940E-5
	36,560140	19,290000	-5,343750	19,288750	-5,340000	-1,397806E-5
	36,682142	19,263750	-5,435000	19,262500	-5,430000	-1,287618E-5
	36,780144	19,236250	-5,531250	19,235000	-5,527500	-1,467796E-5
	36,878147	19,202500	-5,646250	19,201250	-5,642500	-1,317884E-5
	36,974148	19,175000	-5,741250	19,173750	-5,737500	-1,353825E-5
	37,141149	19,145000	-5,838750	19,143750	-5,833750	-1,421451E-5
	37,239153	19,116250	-5,933750	19,115000	-5,930000	-1,578456E-5
	37,338156	19,087500	-6,023750	19,086250	-6,020000	-1,137707E-5
	37,437155	19,057500	-6,120000	19,056250	-6,115000	-1,505155E-5
	37,559157	19,018750	-6,237500	19,017500	-6,233750	-1,672564E-5
	37,658160	18,988750	-6,327500	18,987500	-6,325000	-1,600210E-5
	37,757162	18,957500	-6,422500	18,956250	-6,418750	-1,286200E-5
	37,855165	18,926250	-6,515000	18,925000	-6,510000	-1,254515E-5
	37,976163	18,885000	-6,630000	18,883750	-6,626250	-1,316466E-5
	38,074166	18,853750	-6,720000	18,852500	-6,716250	-1,611559E-5
	38,170167	18,820000	-6,815000	18,818750	-6,811250	-1,368013E-5
	38,266169	18,786250	-6,903750	18,785000	-6,900000	-1,364229E-5
	38,390172	18,743750	-7,021250	18,742500	-7,017500	-1,355244E-5
	38,491174	18,710000	-7,110000	18,708750	-7,106250	-1,431382E-5
	38,587174	18,676250	-7,197500	18,675000	-7,195000	-1,473944E-5
	38,686179	18,640000	-7,292500	18,637500	-7,288750	-1,333963E-5
	38,806181	18,601250	-7,390000	18,600000	-7,386250	-1,181687E-5
	38,905180	18,565000	-7,481250	18,562500	-7,477500	-1,452663E-5
	39,001182	18,526250	-7,573750	18,526250	-7,571250	-1,351461E-5
	39,097183	18,490000	-7,665000	18,487500	-7,660000	-1,289037E-5
	39,220188	18,442500	-7,777500	18,440000	-7,773750	-1,319776E-5
	39,319188	18,405000	-7,866250	18,403750	-7,862500	-1,294239E-5
	39,418189	18,363750	-7,957500	18,363750	-7,952500	-1,416722E-5
	39,520191	18,323750	-8,053750	18,321250	-8,050000	-1,269175E-5
	39,617192	18,282500	-8,143750	18,281250	-8,140000	-1,248840E-5
	39,715195	18,241250	-8,236250	18,240000	-8,232500	-1,056367E-5
	39,837198	18,202500	-8,322500	18,201250	-8,318750	-1,289037E-5
	39,935199	18,160000	-8,413750	18,158750	-8,410000	-1,235599E-5
	40,032199	18,107500	-8,526250	18,106250	-8,523750	-1,041234E-5
	40,130204	18,066250	-8,613750	18,065000	-8,610000	-1,166082E-5
	40,253201	18,026250	-8,702500	18,023750	-8,695000	-1,206752E-5
	40,350205	17,980000	-8,792500	17,978750	-8,788750	-1,151894E-5
	40,447206	17,938750	-8,877500	17,936250	-8,873750	-1,012860E-5
	40,545210	17,893750	-8,967500	17,891250	-8,963750	-1,157569E-5
	40,667210	17,848750	-9,056250	17,846250	-9,051250	-1,081431E-5
	40,764212	17,803750	-9,145000	17,801250	-9,141250	-7,976876E-6
	40,862213	17,757500	-9,233750	17,756250	-9,230000	-9,929979E-6
	40,960215	17,702500	-9,340000	17,700000	-9,336250	-1,199658E-5
	41,063218	17,655000	-9,428750	17,652500	-9,425000	-1,156151E-5
	41,164219	17,607500	-9,516250	17,606250	-9,512500	-1,016643E-5
	41,262221	17,561250	-9,600000	17,558750	-9,597500	-1,156151E-5
	41,360222	17,480000	-9,748750	17,478750	-9,745000	-1,107914E-5
	41,482222	17,433750	-9,832500	17,431250	-9,827500	-1,106022E-5
	41,582227	17,383750	-9,920000	17,381250	-9,916250	-8,307910E-6
	41,680228	17,336250	-10,001250	17,333750	-9,997500	-8,359930E-6
	41,782230	17,276250	-10,105000	17,273750	-10,102500	-1,029885E-5
	41,881231	17,225000	-10,191250	17,223750	-10,187500	-9,693526E-6
	41,982234	17,177500	-10,272500	17,175000	-10,268750	-1,235126E-5
	42,080235	17,125000	-10,358750	17,123750	-10,355000	-8,052541E-6
	42,180243	17,061250	-10,462500	17,060000	-10,458750	-7,811359E-6
	42,302238	17,010000	-10,545000	17,008750	-10,542500	-7,248600E-6
	42,400240	16,960000	-10,626250	16,957500	-10,622500	-6,945940E-6
	42,496241	16,906250	-10,711250	16,905000	-10,707500	-6,789881E-6
	42,597243	16,841250	-10,813750	16,838750	-10,810000	-1,023737E-5
	42,696245	16,787500	-10,895000	16,786250	-10,892500	-9,447614E-6
	42,792247	16,733750	-10,978750	16,731250	-10,976250	-8,922688E-6
	42,893249	16,680000	-11,060000	16,677500	-11,056250	-8,534905E-6
	42,992249	16,625000	-11,142500	16,623750	-11,138750	-1,006239E-5
	43,091252	16,570000	-11,225000	16,566250	-11,222500	-8,397750E-6
	43,216255	16,502500	-11,323750	16,500000	-11,321250	-9,712428E-6
	43,313256	16,445000	-11,406250	16,442500	-11,402500	-7,040510E-6
	43,411257	16,390000	-11,485000	16,387500	-11,481250	-6,647998E-6
	43,510260	16,333750	-11,566250	16,331250	-11,562500	-7,215485E-6
	43,677262	16,260000	-11,668750	16,257500	-11,665000	-7,035781E-6
	43,774264	16,205000	-11,745000	16,202500	-11,742500	-6,435191E-6
	43,873265	16,143750	-11,828750	16,141250	-11,826250	-6,662185E-6
	43,970269	16,085000	-11,907500	16,083750	-11,903750	-7,381002E-6
	44,089269	16,027500	-11,986250	16,025000	-11,982500	-4,865143E-6
	44,188270	15,966250	-12,066250	15,963750	-12,062500	-8,175484E-6
	44,286272	15,907500	-12,142500	15,906250	-12,140000	-4,964453E-6
	44,384274	15,847500	-12,222500	15,845000	-12,218750	-5,044847E-6
	44,505278	15,783750	-12,303750	15,783750	-12,297500	-5,494108E-6
	44,604279	15,721250	-12,383750	15,718750	-12,380000	-6,203467E-6
	44,701279	15,660000	-12,461250	15,656250	-12,457500	-6,302777E-6
	44,797281	15,597500	-12,538750	15,595000	-12,536250	-4,912434E-6
	44,920283	15,533750	-12,617500	15,531250	-12,615000	-5,952827E-6
	45,019286	15,473750	-12,691250	15,471250	-12,688750	-5,834600E-6
	45,117286	15,410000	-12,768750	15,407500	-12,765000	-3,470071E-6
	45,217288	15,343750	-12,847500	15,341250	-12,845000	-3,834209E-6
	45,314293	15,278750	-12,925000	15,276250	-12,922500	-4,973912E-6
	45,412292	15,217500	-12,996250	15,215000	-12,996250	-3,555194E-6
	45,534294	15,152500	-13,073750	15,150000	-13,070000	-4,780020E-6
	45,632296	15,086250	-13,147500	15,083750	-13,147500	-2,103373E-6
	45,730298	15,017500	-13,227500	15,013750	-13,225000	-4,472631E-6
	45,829299	14,950000	-13,303750	14,947500	-13,300000	-3,134308E-6
	45,952299	14,883750	-13,377500	14,881250	-13,373750	-2,254703E-6
	46,051303	14,816250	-13,451250	14,813750	-13,447500	-7,073613E-6
	46,151304	14,750000	-13,525000	14,750000	-13,522500	-4,207804E-6
	46,250308	14,678750	-13,601250	14,676250	-13,598750	-3,820021E-6
	46,346308	14,610000	-13,675000	14,607500	-13,671250	-3,233618E-6
	46,446310	14,541250	-13,747500	14,538750	-13,745000	-2,472240E-6
	46,545314	14,473750	-13,820000	14,471250	-13,817500	-3,900415E-6
	46,644314	14,405000	-13,892500	14,401250	-13,890000	-2,855293E-6
	46,745315	14,336250	-13,961250	14,332500	-13,958750	-1,786526E-6
	46,850317	14,267500	-14,032500	14,263750	-14,030000	-2,344555E-6
	46,948318	14,182500	-14,118750	14,178750	-14,115000	-2,358742E-6
	47,046321	14,112500	-14,187500	14,108750	-14,185000	-4,094307E-6
	47,147320	14,045000	-14,255000	14,041250	-14,252500	-1,838546E-6
	47,245324	13,972500	-14,325000	13,970000	-14,322500	-2,637757E-6
	47,344327	13,882500	-14,413750	13,880000	-14,410000	-1,781797E-6
	47,446329	13,810000	-14,481250	13,807500	-14,477500	-2,869481E-6
	47,547330	13,738750	-14,548750	13,736250	-14,546250	2,895303E-7
	47,646333	13,668750	-14,616250	13,665000	-14,612500	-2,183767E-6
	47,744331	13,578750	-14,698750	13,575000	-14,696250	-3,016081E-6
	47,845336	13,503750	-14,767500	13,501250	-14,765000	-8,217984E-7
	47,946333	13,433750	-14,831250	13,430000	-14,828750	-4,292865E-7
	48,048337	13,358750	-14,895000	13,358750	-14,896250	-1,048793E-6
	48,147338	13,266250	-14,981250	13,262500	-14,977500	2,389232E-6
	48,249340	13,193750	-15,045000	13,190000	-15,042500	-2,448594E-6
	48,347342	13,118750	-15,110000	13,116250	-15,107500	-2,013532E-6
	48,450348	13,042500	-15,175000	13,038750	-15,173750	-3,820045E-7
	48,553345	12,967500	-15,240000	12,965000	-15,237500	-2,685060E-6
	48,655347	12,890000	-15,305000	12,887500	-15,301250	-2,075010E-6
	48,753348	12,800000	-15,382500	12,796250	-15,380000	2,001445E-6
	48,854353	12,722500	-15,445000	12,720000	-15,442500	-1,219059E-7
	48,951354	12,645000	-15,508750	12,646250	-15,506250	1,159671E-6
	49,049354	12,566250	-15,572500	12,562500	-15,570000	1,088735E-6
	49,170356	12,488750	-15,633750	12,486250	-15,631250	4,238293E-6
	49,269358	12,408750	-15,696250	12,406250	-15,695000	-4,103789E-7
	49,366361	12,331250	-15,758750	12,328750	-15,755000	1,121838E-6
	49,464364	12,257500	-15,816250	12,252500	-15,813750	3,103317E-6
	49,588364	12,175000	-15,880000	12,171250	-15,877500	3,235731E-6
	49,687365	12,093750	-15,941250	12,090000	-15,938750	3,254647E-6
	49,786370	12,015000	-16,000000	12,011250	-15,997500	1,102922E-6
	49,886370	11,933750	-16,061250	11,931250	-16,058750	2,204795E-6
	50,009370	11,852500	-16,121250	11,850000	-16,118750	1,050902E-6
	50,107373	11,777500	-16,177500	11,773750	-16,173750	2,488538E-6
	50,205375	11,691250	-16,238750	11,688750	-16,235000	5,065880E-6
	50,303374	11,613750	-16,292500	11,611250	-16,291250	1,996607E-8
	50,426377	11,532500	-16,350000	11,530000	-16,348750	2,044006E-6
	50,525382	11,456250	-16,405000	11,452500	-16,402500	1,117109E-6
	50,624380	11,372500	-16,463750	11,367500	-16,461250	2,933071E-6
	50,725383	11,295000	-16,516250	11,291250	-16,513750	4,110608E-6
	50,824385	11,193750	-16,585000	11,191250	-16,581250	1,982528E-6
	50,921386	11,112500	-16,638750	11,110000	-16,637500	2,734450E-6
	51,044389	11,031250	-16,692500	11,028750	-16,690000	3,514746E-6
	51,141393	10,948750	-16,746250	10,945000	-16,745000	3,022923E-6
	51,240391	10,846250	-16,813750	10,841250	-16,812500	2,951987E-6
	51,343394	10,760000	-16,868750	10,756250	-16,866250	4,304500E-6
	51,440395	10,676250	-16,921250	10,673750	-16,920000	5,879284E-6
	51,543397	10,591250	-16,973750	10,587500	-16,972500	3,330312E-6
	51,639400	10,505000	-17,028750	10,502500	-17,026250	4,649722E-6
	51,740402	10,422500	-17,078750	10,417500	-17,077500	4,621347E-6
	51,843401	10,280000	-17,167500	10,277500	-17,162500	5,028047E-6
	51,944408	10,190000	-17,218750	10,186250	-17,216250	5,567164E-6
	52,043403	10,107500	-17,267500	10,105000	-17,265000	3,401248E-6
	52,144412	10,021250	-17,317500	10,013750	-17,315000	5,652288E-6
	52,243408	9,912500	-17,378750	9,906250	-17,378750	4,772677E-6
	52,341410	9,825000	-17,428750	9,822500	-17,427500	7,269638E-6
	52,443411	9,737500	-17,477500	9,733750	-17,476250	5,212482E-6
	52,540414	9,651250	-17,526250	9,647500	-17,523750	5,217211E-6
	52,636417	9,545000	-17,583750	9,540000	-17,582500	6,252883E-6
	52,736415	9,457500	-17,630000	9,452500	-17,630000	4,318687E-6
	52,833417	9,368750	-17,677500	9,365000	-17,676250	5,378000E-6
	52,930419	9,280000	-17,725000	9,276250	-17,723750	6,891310E-6
	53,050423	9,192500	-17,770000	9,188750	-17,768750	8,981569E-6
	53,149426	9,107500	-17,813750	9,103750	-17,812500	6,593377E-6
	53,245427	9,018750	-17,858750	9,013750	-17,857500	9,137630E-6
	53,343432	8,927500	-17,905000	8,923750	-17,902500	5,973866E-6
	53,467430	8,821250	-17,957500	8,817500	-17,955000	6,631210E-6
	53,566432	8,730000	-18,001250	8,726250	-18,000000	7,359490E-6
	53,668436	8,641250	-18,043750	8,637500	-18,042500	8,693099E-6
	53,771433	8,551250	-18,087500	8,547500	-18,085000	9,203842E-6
	53,868437	8,456250	-18,131250	8,452500	-18,130000	7,662156E-6
	53,966437	8,363750	-18,173750	8,360000	-18,172500	9,113989E-6
	54,136440	8,275000	-18,215000	8,271250	-18,212500	6,962249E-6
	54,237442	8,182500	-18,256250	8,178750	-18,255000	1,139341E-5
	54,336442	8,096250	-18,295000	8,091250	-18,292500	8,158711E-6
	54,435445	8,003750	-18,335000	8,000000	-18,333750	9,724043E-6
	54,558449	7,890000	-18,382500	7,891250	-18,380000	7,733092E-6
	54,662449	7,798750	-18,422500	7,795000	-18,421250	8,872805E-6
	54,759454	7,705000	-18,462500	7,701250	-18,461250	1,078809E-5
	54,858452	7,613750	-18,500000	7,610000	-18,498750	1,038139E-5
	54,981456	7,521250	-18,537500	7,516250	-18,536250	9,364631E-6
	55,078456	7,428750	-18,575000	7,425000	-18,575000	7,870236E-6
	55,179459	7,333750	-18,612500	7,330000	-18,611250	1,054218E-5
	55,278460	7,242500	-18,648750	7,238750	-18,647500	1,398969E-5
	55,376466	7,153750	-18,682500	7,150000	-18,681250	1,187578E-5
	55,476465	7,063750	-18,716250	7,060000	-18,715000	6,432590E-6
	55,574467	6,948750	-18,760000	6,941250	-18,760000	9,497046E-6
	55,673469	6,852500	-18,795000	6,848750	-18,793750	1,293037E-5
	55,794468	6,762500	-18,827500	6,758750	-18,826250	1,159677E-5
	55,895475	6,668750	-18,860000	6,663750	-18,860000	1,081174E-5
	55,993477	6,507500	-18,916250	6,505000	-18,915000	1,381944E-5
	56,093478	6,420000	-18,946250	6,415000	-18,945000	1,052799E-5
	56,196478	6,325000	-18,978750	6,321250	-18,977500	1,099617E-5
	56,300479	6,228750	-19,010000	6,226250	-19,008750	1,243855E-5
	56,396481	6,138750	-19,038750	6,133750	-19,038750	1,099617E-5
	56,497480	6,045000	-19,070000	6,037500	-19,068750	1,092996E-5
	56,594485	5,925000	-19,107500	5,920000	-19,106250	1,257096E-5
	56,693484	5,832500	-19,135000	5,830000	-19,133750	1,024897E-5
	56,816487	5,742500	-19,162500	5,737500	-19,161250	1,399442E-5
	56,916490	5,645000	-19,191250	5,640000	-19,190000	1,142179E-5
	57,017489	5,526250	-19,225000	5,521250	-19,223750	9,189655E-6
	57,118494	5,435000	-19,251250	5,430000	-19,250000	1,118533E-5
	57,219497	5,338750	-19,277500	5,333750	-19,277500	1,261352E-5
	57,318497	5,247500	-19,303750	5,241250	-19,302500	1,122317E-5
	57,417496	5,125000	-19,335000	5,121250	-19,335000	1,109075E-5
	57,517500	5,033750	-19,360000	5,027500	-19,360000	1,328978E-5
	57,614499	4,938750	-19,385000	4,932500	-19,383750	1,217372E-5
	57,712502	4,840000	-19,408750	4,838750	-19,407500	1,145017E-5
	57,834505	4,748750	-19,431250	4,745000	-19,430000	1,229195E-5
	57,933508	4,646250	-19,456250	4,641250	-19,455000	1,155894E-5
	58,031507	4,550000	-19,478750	4,542500	-19,477500	1,283107E-5
	58,129508	4,448750	-19,501250	4,447500	-19,501250	1,200820E-5
	58,298512	4,355000	-19,522500	4,351250	-19,522500	1,007400E-5
	58,396513	4,255000	-19,545000	4,251250	-19,545000	1,269865E-5
	58,493516	4,157500	-19,565000	4,155000	-19,565000	1,346950E-5
	58,593520	4,040000	-19,590000	4,036250	-19,590000	1,147381E-5
	58,690522	3,941250	-19,610000	3,937500	-19,610000	1,532803E-5
	58,788522	3,846250	-19,630000	3,840000	-19,628750	1,312427E-5
	58,912524	3,751250	-19,647500	3,741250	-19,647500	1,193254E-5
	59,009528	3,648750	-19,666250	3,645000	-19,666250	1,420251E-5
	59,107525	3,556250	-19,683750	3,550000	-19,683750	1,319521E-5
	59,204527	3,452500	-19,702500	3,447500	-19,701250	1,660016E-5
	59,328529	3,352500	-19,718750	3,348750	-19,717500	1,321412E-5
	59,425533	3,253750	-19,735000	3,251250	-19,735000	1,502537E-5
	59,524533	3,135000	-19,753750	3,128750	-19,755000	1,528547E-5
	59,620536	3,037500	-19,770000	3,031250	-19,770000	1,632114E-5
	59,743536	2,932500	-19,785000	2,932500	-19,785000	1,414576E-5
	59,839539	2,833750	-19,800000	2,830000	-19,798750	1,430182E-5
	59,938540	2,735000	-19,813750	2,731250	-19,812500	1,611306E-5
	60,035542	2,636250	-19,827500	2,631250	-19,826250	1,528074E-5
	60,136543	2,536250	-19,840000	2,536250	-19,838750	1,490241E-5
	60,235546	2,443750	-19,851250	2,437500	-19,851250	1,766894E-5
	60,338546	2,350000	-19,862500	2,343750	-19,862500	1,623602E-5
	60,439548	2,250000	-19,873750	2,242500	-19,873750	1,565434E-5
	60,540551	2,148750	-19,883750	2,142500	-19,885000	1,398497E-5
	60,640555	2,051250	-19,895000	2,046250	-19,895000	1,493552E-5
	60,737553	1,950000	-19,905000	1,945000	-19,905000	1,282161E-5
	60,861557	1,845000	-19,915000	1,840000	-19,915000	1,863840E-5
	60,960558	1,752500	-19,923750	1,747500	-19,922500	1,695484E-5
	61,058562	1,652500	-19,932500	1,647500	-19,932500	1,392349E-5
	61,157560	1,482500	-19,945000	1,478750	-19,945000	1,658124E-5
	61,257565	1,388750	-19,951250	1,381250	-19,952500	1,197983E-5
	61,355565	1,287500	-19,958750	1,283750	-19,958750	1,460921E-5
	61,459566	1,186250	-19,965000	1,182500	-19,965000	1,602794E-5
	61,558566	1,068750	-19,971250	1,063750	-19,971250	1,470852E-5
	61,657571	0,970000	-19,976250	0,961250	-19,976250	1,406536E-5
	61,779572	0,870000	-19,980000	0,862500	-19,981250	1,745140E-5
	61,880572	0,772500	-19,985000	0,767500	-19,985000	1,530912E-5
	61,982575	0,648750	-19,988750	0,642500	-19,988750	1,782500E-5
	62,081577	0,555000	-19,991250	0,547500	-19,991250	1,790539E-5
	62,182581	0,452500	-19,993750	0,448750	-19,993750	1,646775E-5
	62,281580	0,357500	-19,996250	0,352500	-19,996250	1,536587E-5
	62,383580	0,232500	-19,997500	0,228750	-19,997500	1,745140E-5
	62,479584	0,132500	-19,998750	0,128750	-19,998750	1,817495E-5
	62,575587	0,038750	-19,998750	0,033750	-19,998750	1,751761E-5
	62,676587	-0,058750	-19,998750	-0,063750	-19,998750	1,595700E-5
	62,775590	-0,181250	-19,997500	-0,186250	-19,998750	1,753179E-5
	62,876592	-0,281250	-19,996250	-0,286250	-19,997500	1,744194E-5
	62,975593	-0,376250	-19,995000	-0,380000	-19,995000	1,887484E-5
	63,078594	-0,477500	-19,992500	-0,481250	-19,993750	1,717237E-5
	63,176595	-0,597500	-19,990000	-0,601250	-19,990000	1,579147E-5
	63,275599	-0,696250	-19,986250	-0,700000	-19,986250	1,431599E-5
	63,442606	-0,791250	-19,982500	-0,795000	-19,982500	1,535639E-5
	63,541601	-0,892500	-19,978750	-0,896250	-19,978750	1,604684E-5
	63,639603	-1,011250	-19,972500	-1,015000	-19,972500	1,581985E-5
	63,738605	-1,112500	-19,967500	-1,116250	-19,967500	1,634478E-5
	63,861607	-1,212500	-19,960000	-1,216250	-19,961250	1,307224E-5
	63,958609	-1,307500	-19,955000	-1,312500	-19,955000	1,485984E-5
	64,058610	-1,432500	-19,946250	-1,437500	-19,947500	1,617926E-5
	64,155612	-1,526250	-19,938750	-1,528750	-19,940000	1,522398E-5
	64,278613	-1,625000	-19,931250	-1,628750	-19,932500	1,649138E-5
	64,375617	-1,720000	-19,923750	-1,723750	-19,923750	1,459028E-5
	64,473620	-1,843750	-19,912500	-1,847500	-19,912500	1,515777E-5
	64,571620	-1,938750	-19,902500	-1,942500	-19,903750	1,541787E-5
	64,696624	-2,037500	-19,892500	-2,042500	-19,893750	1,608467E-5
	64,793622	-2,138750	-19,882500	-2,142500	-19,882500	1,672783E-5
	64,889625	-2,256250	-19,870000	-2,261250	-19,870000	1,731424E-5
	64,987139	-2,351250	-19,857500	-2,356250	-19,858750	1,699266E-5
	65,110141	-2,450000	-19,846250	-2,453750	-19,847500	1,551718E-5
	65,208141	-2,545000	-19,833750	-2,548750	-19,835000	1,518142E-5
	65,307146	-2,665000	-19,818750	-2,668750	-19,818750	1,433491E-5
	65,404143	-2,757500	-19,805000	-2,762500	-19,806250	1,433491E-5
	65,526146	-2,856250	-19,791250	-2,861250	-19,792500	1,442476E-5
	65,625147	-2,950000	-19,777500	-2,955000	-19,777500	1,424506E-5
	65,722153	-3,075000	-19,757500	-3,078750	-19,758750	1,512940E-5
	65,819152	-3,173750	-19,742500	-3,177500	-19,743750	1,428289E-5
	65,942155	-3,267500	-19,727500	-3,271250	-19,727500	1,665217E-5
	66,041156	-3,362500	-19,711250	-3,366250	-19,712500	1,625492E-5
	66,139158	-3,485000	-19,690000	-3,488750	-19,691250	1,650084E-5
	66,236161	-3,576250	-19,673750	-3,581250	-19,673750	1,796686E-5
	66,360160	-3,671250	-19,656250	-3,675000	-19,657500	1,541314E-5
	66,458163	-3,768750	-19,637500	-3,772500	-19,637500	1,607522E-5
	66,556165	-3,892500	-19,612500	-3,895000	-19,613750	1,445314E-5
	66,652167	-3,990000	-19,593750	-3,992500	-19,595000	1,314318E-5
	66,774168	-4,082500	-19,573750	-4,086250	-19,575000	1,441530E-5
	66,871171	-4,180000	-19,552500	-4,186250	-19,555000	1,427343E-5
	66,969174	-4,296250	-19,527500	-4,301250	-19,528750	1,375796E-5
	67,068173	-4,395000	-19,505000	-4,398750	-19,507500	1,644882E-5
	67,189175	-4,487500	-19,485000	-4,491250	-19,486250	1,914440E-5
	67,286177	-4,585000	-19,462500	-4,588750	-19,462500	1,537531E-5
	67,382179	-4,701250	-19,435000	-4,706250	-19,435000	1,388092E-5
	67,481183	-4,798750	-19,410000	-4,803750	-19,411250	1,561177E-5
	67,602185	-4,895000	-19,385000	-4,898750	-19,387500	1,759799E-5
	67,697184	-4,990000	-19,362500	-4,993750	-19,362500	1,554083E-5
	67,794186	-5,110000	-19,330000	-5,113750	-19,332500	1,601847E-5
	67,892190	-5,201250	-19,305000	-5,205000	-19,307500	1,706360E-5
	68,018190	-5,296250	-19,280000	-5,300000	-19,281250	1,598063E-5
	68,116194	-5,391250	-19,253750	-5,395000	-19,255000	1,270810E-5
	68,211193	-5,508750	-19,220000	-5,512500	-19,221250	1,579147E-5
	68,307195	-5,605000	-19,192500	-5,610000	-19,193750	1,669000E-5
	68,429195	-5,700000	-19,163750	-5,703750	-19,165000	1,328032E-5
	68,525201	-5,792500	-19,137500	-5,796250	-19,137500	1,191361E-5
	68,623198	-5,912500	-19,100000	-5,916250	-19,101250	1,514831E-5
	68,722202	-6,006250	-19,070000	-6,011250	-19,072500	1,534694E-5
	68,845201	-6,097500	-19,041250	-6,101250	-19,042500	1,343638E-5
	68,943202	-6,196250	-19,008750	-6,200000	-19,010000	1,391875E-5
	69,040206	-6,290000	-18,978750	-6,293750	-18,980000	1,358771E-5
	69,139206	-6,382500	-18,947500	-6,387500	-18,948750	1,300603E-5
	69,262211	-6,542500	-18,892500	-6,546250	-18,893750	1,445787E-5
	69,360210	-6,637500	-18,860000	-6,641250	-18,861250	1,210278E-5
	69,457211	-6,727500	-18,827500	-6,731250	-18,828750	1,412210E-5
	69,555213	-6,822500	-18,792500	-6,826250	-18,795000	1,280741E-5
	69,677216	-6,936250	-18,751250	-6,940000	-18,753750	1,616980E-5
	69,776218	-7,027500	-18,717500	-7,031250	-18,718750	1,392821E-5
	69,873218	-7,121250	-18,681250	-7,125000	-18,683750	1,295401E-5
	69,970220	-7,210000	-18,647500	-7,213750	-18,650000	1,276958E-5
	70,093221	-7,321250	-18,603750	-7,325000	-18,606250	1,627857E-5
	70,191223	-7,416250	-18,566250	-7,420000	-18,567500	1,065567E-5
	70,290225	-7,502500	-18,531250	-7,507500	-18,532500	1,454772E-5
	70,386227	-7,595000	-18,493750	-7,597500	-18,495000	1,307697E-5
	70,510229	-7,706250	-18,447500	-7,710000	-18,448750	1,542260E-5
	70,609230	-7,798750	-18,408750	-7,802500	-18,410000	1,331815E-5
	70,708231	-7,886250	-18,371250	-7,890000	-18,373750	1,269391E-5
	70,807230	-7,972500	-18,333750	-7,976250	-18,335000	1,071242E-5
	70,930233	-8,087500	-18,282500	-8,091250	-18,285000	1,165824E-5
	71,027235	-8,173750	-18,245000	-8,177500	-18,246250	1,289253E-5
	71,126239	-8,265000	-18,202500	-8,268750	-18,205000	1,118533E-5
	71,227237	-8,356250	-18,161250	-8,360000	-18,163750	1,298711E-5
	71,324240	-8,466250	-18,110000	-8,470000	-18,112500	1,353569E-5
	71,424240	-8,553750	-18,068750	-8,558750	-18,071250	1,419303E-5
	71,595244	-8,642500	-18,026250	-8,646250	-18,028750	1,109547E-5
	71,693245	-8,726250	-17,986250	-8,730000	-17,988750	1,077390E-5
	71,790247	-8,836250	-17,932500	-8,838750	-17,935000	1,118060E-5
	71,889248	-8,923750	-17,888750	-8,927500	-17,891250	1,197036E-5
	72,012251	-9,008750	-17,847500	-9,012500	-17,848750	1,071242E-5
	72,110251	-9,097500	-17,801250	-9,100000	-17,803750	1,098671E-5
	72,209253	-9,186250	-17,755000	-9,188750	-17,757500	1,273174E-5
	72,306255	-9,275000	-17,708750	-9,278750	-17,711250	1,284051E-5
	72,427256	-9,358750	-17,665000	-9,362500	-17,667500	1,001724E-5
	72,525258	-9,470000	-17,605000	-9,472500	-17,608750	1,313844E-5
	72,622261	-9,552500	-17,560000	-9,556250	-17,562500	1,319992E-5
	72,718262	-9,641250	-17,511250	-9,645000	-17,513750	9,927388E-6
	72,842263	-9,727500	-17,463750	-9,732500	-17,465000	1,201292E-5
	72,941265	-9,816250	-17,415000	-9,818750	-17,416250	8,797135E-6
	73,036267	-9,901250	-17,366250	-9,905000	-17,367500	1,033409E-5
	73,133267	-10,007500	-17,305000	-10,011250	-17,307500	9,780786E-6
	73,255270	-10,093750	-17,253750	-10,097500	-17,256250	1,014966E-5
	73,353270	-10,182500	-17,202500	-10,187500	-17,205000	1,176701E-5
	73,451277	-10,270000	-17,150000	-10,273750	-17,152500	1,009291E-5
	73,549273	-10,353750	-17,100000	-10,358750	-17,102500	1,049015E-5
	73,669275	-10,436250	-17,050000	-10,440000	-17,051250	1,130828E-5
	73,768277	-10,542500	-16,983750	-10,545000	-16,986250	8,470827E-6
	73,865279	-10,622500	-16,933750	-10,626250	-16,936250	1,066513E-5
	73,960280	-10,706250	-16,880000	-10,711250	-16,882500	9,166004E-6
	74,082283	-10,788750	-16,828750	-10,791250	-16,831250	9,000486E-6
	74,179283	-10,893750	-16,760000	-10,897500	-16,762500	7,123036E-6
	74,277286	-10,976250	-16,705000	-10,980000	-16,708750	1,351677E-5
	74,374289	-11,060000	-16,651250	-11,063750	-16,653750	9,213295E-6
	74,475288	-11,142500	-16,595000	-11,146250	-16,597500	9,619997E-6
	74,573290	-11,221250	-16,542500	-11,225000	-16,545000	5,132087E-6
	74,672292	-11,303750	-16,485000	-11,307500	-16,488750	1,173390E-5
	74,793293	-11,402500	-16,417500	-11,406250	-16,420000	1,058473E-5
	74,892294	-11,480000	-16,363750	-11,485000	-16,366250	6,285986E-6
	74,990298	-11,562500	-16,305000	-11,566250	-16,307500	5,633371E-6
	75,091297	-11,643750	-16,247500	-11,646250	-16,250000	7,108849E-6
	75,189298	-11,740000	-16,177500	-11,743750	-16,180000	8,707282E-6
	75,287302	-11,817500	-16,121250	-11,821250	-16,123750	3,869426E-6
	75,411302	-11,895000	-16,065000	-11,897500	-16,066250	9,128171E-6
	75,510303	-11,970000	-16,007500	-11,973750	-16,011250	8,650533E-6
	75,615304	-12,070000	-15,932500	-12,072500	-15,936250	8,120874E-6
	75,715307	-12,146250	-15,875000	-12,148750	-15,877500	9,445021E-6
	75,813310	-12,226250	-15,812500	-12,228750	-15,816250	7,018996E-6
	75,911310	-12,300000	-15,755000	-12,303750	-15,758750	7,893878E-6
	76,034311	-12,398750	-15,677500	-12,401250	-15,681250	7,827671E-6
	76,131314	-12,473750	-15,618750	-12,476250	-15,621250	7,955356E-6
	76,229314	-12,550000	-15,556250	-12,553750	-15,560000	6,569732E-6
	76,325317	-12,627500	-15,495000	-12,631250	-15,497500	6,962247E-6
	76,449317	-12,760000	-15,385000	-12,763750	-15,388750	4,682825E-6
	76,548319	-12,836250	-15,322500	-12,838750	-15,325000	6,990621E-6
	76,647320	-12,908750	-15,260000	-12,912500	-15,262500	8,276935E-6
	76,748322	-12,985000	-15,196250	-12,987500	-15,198750	7,137223E-6
	76,847322	-13,057500	-15,133750	-13,061250	-15,136250	7,870233E-6
	76,946330	-13,147500	-15,053750	-13,151250	-15,057500	5,794161E-6
	77,066330	-13,220000	-14,992500	-13,222500	-14,995000	4,678096E-6
	77,163328	-13,293750	-14,925000	-13,296250	-14,928750	3,368145E-6
	77,261330	-13,370000	-14,858750	-13,372500	-14,861250	7,860774E-6
	77,357332	-13,460000	-14,775000	-13,463750	-14,778750	5,997512E-6
	77,480338	-13,531250	-14,711250	-13,535000	-14,713750	5,917117E-6
	77,576336	-13,603750	-14,643750	-13,607500	-14,647500	4,313958E-6
	77,671338	-13,672500	-14,577500	-13,676250	-14,581250	3,614056E-6
	77,768338	-13,761250	-14,495000	-13,763750	-14,498750	5,188837E-6
	77,890341	-13,833750	-14,426250	-13,837500	-14,430000	5,136817E-6
	77,986341	-13,905000	-14,357500	-13,908750	-14,361250	3,647160E-6
	78,085342	-13,977500	-14,287500	-13,980000	-14,290000	3,845780E-6
	78,181344	-14,062500	-14,203750	-14,065000	-14,207500	3,032377E-6
	78,306352	-14,130000	-14,136250	-14,133750	-14,138750	1,807546E-6
	78,402347	-14,196250	-14,068750	-14,198750	-14,072500	2,237892E-6
	78,501351	-14,267500	-13,997500	-14,271250	-14,000000	4,796322E-6
	78,598351	-14,355000	-13,906250	-14,357500	-13,910000	5,482042E-6
	78,768353	-14,422500	-13,837500	-14,425000	-13,840000	4,871988E-6
	78,867354	-14,490000	-13,767500	-14,492500	-13,770000	2,308828E-6
	78,968354	-14,558750	-13,693750	-14,561250	-13,697500	4,408538E-6
	79,063357	-14,627500	-13,621250	-14,630000	-13,623750	3,046564E-6
	79,159359	-14,693750	-13,547500	-14,696250	-13,551250	1,939960E-6
	79,279360	-14,761250	-13,475000	-14,763750	-13,478750	2,663509E-6
	79,377363	-14,842500	-13,386250	-14,843750	-13,390000	3,443807E-6
	79,476363	-14,908750	-13,310000	-14,912500	-13,313750	1,102914E-6
	79,575365	-14,975000	-13,236250	-14,977500	-13,240000	3,235727E-6
	79,698368	-15,038750	-13,165000	-15,041250	-13,167500	9,090219E-7
	79,795371	-15,116250	-13,075000	-15,118750	-13,077500	1,050894E-6
	79,893368	-15,182500	-12,998750	-15,186250	-13,001250	8,948347E-7
	79,992373	-15,247500	-12,921250	-15,250000	-12,925000	1,183308E-6
	80,113373	-15,311250	-12,846250	-15,313750	-12,850000	4,030212E-6
	80,211377	-15,391250	-12,750000	-15,393750	-12,753750	-7,887164E-7
	80,310376	-15,453750	-12,672500	-15,457500	-12,676250	1,055623E-6
	80,408380	-15,515000	-12,598750	-15,517500	-12,602500	2,379765E-6
	80,530379	-15,577500	-12,521250	-15,580000	-12,523750	1,798088E-6
	80,626382	-15,655000	-12,422500	-15,658750	-12,426250	1,079269E-6
	80,720385	-15,715000	-12,348750	-15,717500	-12,351250	-2,789115E-6
	80,819384	-15,772500	-12,273750	-15,775000	-12,277500	2,034542E-6
	80,943386	-15,833750	-12,196250	-15,836250	-12,198750	-6,988639E-7
	81,044388	-15,910000	-12,097500	-15,912500	-12,100000	1,363013E-6
	81,142389	-15,967500	-12,020000	-15,970000	-12,022500	-2,647243E-6
	81,241392	-16,026250	-11,940000	-16,028750	-11,943750	-1,124585E-7
	81,341394	-16,086250	-11,860000	-16,088750	-11,863750	-1,805468E-6
	81,440393	-16,158750	-11,761250	-16,161250	-11,765000	-4,515228E-6
	81,539395	-16,216250	-11,681250	-16,218750	-11,685000	-2,032463E-6
	81,661398	-16,273750	-11,600000	-16,277500	-11,603750	-1,446058E-6
	81,760400	-16,328750	-11,523750	-16,331250	-11,526250	-1,063003E-6
	81,858402	-16,400000	-11,421250	-16,402500	-11,423750	4,834051E-7
	81,956403	-16,455000	-11,342500	-16,458750	-11,346250	-2,831677E-6
	82,077404	-16,512500	-11,258750	-16,515000	-11,262500	-1,502807E-6
	82,175405	-16,567500	-11,176250	-16,570000	-11,180000	-8,738397E-7
	82,274407	-16,635000	-11,076250	-16,637500	-11,080000	-4,690204E-6
	82,373407	-16,690000	-10,993750	-16,692500	-10,996250	-3,219461E-6
	82,499411	-16,742500	-10,913750	-16,743750	-10,916250	-1,909507E-6
	82,598412	-16,796250	-10,830000	-16,797500	-10,833750	-6,255528E-6
	82,696413	-16,863750	-10,725000	-16,866250	-10,728750	-7,225093E-7
	82,796415	-16,916250	-10,642500	-16,918750	-10,645000	-4,113257E-6
	82,919416	-16,967500	-10,560000	-16,968750	-10,563750	-6,118385E-6
	83,016418	-17,020000	-10,475000	-17,022500	-10,478750	-4,363898E-6
	83,111421	-17,082500	-10,373750	-17,083750	-10,376250	-4,467937E-6
	83,209422	-17,135000	-10,285000	-17,137500	-10,290000	-2,254730E-6
	83,332421	-17,182500	-10,205000	-17,185000	-10,210000	-3,716014E-6
	83,431425	-17,233750	-10,120000	-17,236250	-10,122500	-3,805867E-6
	83,530427	-17,296250	-10,011250	-17,297500	-10,015000	-2,897884E-6
	83,628429	-17,345000	-9,927500	-17,346250	-9,931250	-3,583600E-6
	83,752430	-17,393750	-9,841250	-17,396250	-9,845000	-6,260257E-6
	83,850431	-17,442500	-9,753750	-17,445000	-9,757500	-4,188922E-6
	83,949432	-17,492500	-9,663750	-17,492500	-9,667500	-1,786655E-7
	84,047433	-17,541250	-9,575000	-17,542500	-9,578750	-7,839769E-6
	84,168436	-17,590000	-9,487500	-17,591250	-9,491250	-7,707354E-6
	84,266437	-17,636250	-9,400000	-17,638750	-9,403750	-7,187156E-6
	84,365438	-17,681250	-9,315000	-17,683750	-9,318750	-5,158383E-6
	84,464437	-17,736250	-9,208750	-17,738750	-9,212500	-6,019074E-6
	84,588444	-17,781250	-9,120000	-17,783750	-9,123750	-6,841934E-6
	84,685442	-17,827500	-9,030000	-17,830000	-9,035000	-4,964490E-6
	84,781445	-17,870000	-8,946250	-17,872500	-8,950000	-3,049215E-6
	84,881446	-17,922500	-8,840000	-17,925000	-8,843750	-9,249033E-6
	85,003452	-17,967500	-8,748750	-17,970000	-8,752500	-8,062035E-6
	85,103449	-18,010000	-8,662500	-18,011250	-8,666250	-5,442127E-6
	85,201452	-18,052500	-8,572500	-18,053750	-8,576250	-5,286068E-6
	85,298452	-18,103750	-8,463750	-18,106250	-8,467500	-6,770997E-6
	85,421455	-18,145000	-8,372500	-18,147500	-8,377500	-7,158782E-6
	85,519456	-18,187500	-8,282500	-18,188750	-8,286250	-5,995429E-6
	85,616458	-18,226250	-8,197500	-18,227500	-8,201250	-5,394836E-6
	85,715458	-18,277500	-8,081250	-18,278750	-8,085000	-7,224993E-6
	85,837462	-18,317500	-7,991250	-18,318750	-7,995000	-5,910309E-6
	85,936462	-18,355000	-7,901250	-18,357500	-7,906250	-1,001515E-5
	86,034465	-18,395000	-7,810000	-18,396250	-7,813750	-6,435237E-6
	86,133465	-18,431250	-7,723750	-18,433750	-7,727500	-6,643316E-6
	86,237467	-18,478750	-7,607500	-18,481250	-7,611250	-6,283906E-6
	86,336471	-18,515000	-7,520000	-18,517500	-7,523750	-9,192289E-6
	86,438472	-18,551250	-7,427500	-18,553750	-7,432500	-6,775731E-6
	86,537474	-18,587500	-7,340000	-18,588750	-7,343750	-5,763708E-6
	86,636474	-18,632500	-7,223750	-18,635000	-7,227500	-8,010020E-6
	86,757475	-18,667500	-7,133750	-18,668750	-7,137500	-7,409427E-6
	86,854475	-18,700000	-7,045000	-18,702500	-7,050000	-9,277413E-6
	86,953479	-18,735000	-6,951250	-18,737500	-6,956250	-8,700465E-6
	87,051481	-18,778750	-6,833750	-18,781250	-6,837500	-7,518196E-6
	87,172481	-18,811250	-6,745000	-18,812500	-6,748750	-7,669526E-6
	87,269482	-18,845000	-6,651250	-18,846250	-6,655000	-9,707759E-6
	87,364483	-18,875000	-6,561250	-18,877500	-6,565000	-9,641552E-6
	87,463485	-18,917500	-6,442500	-18,918750	-6,446250	-1,115486E-5
	87,586490	-18,947500	-6,352500	-18,948750	-6,356250	-9,518596E-6
	87,685490	-18,978750	-6,258750	-18,980000	-6,262500	-1,094678E-5
	87,783490	-19,010000	-6,163750	-19,011250	-6,167500	-1,120688E-5
	87,882494	-19,040000	-6,066250	-19,041250	-6,070000	-9,220664E-6
	88,003494	-19,068750	-5,977500	-19,070000	-5,981250	-1,105082E-5
	88,102494	-19,098750	-5,881250	-19,100000	-5,885000	-9,892193E-6
	88,202498	-19,135000	-5,761250	-19,136250	-5,765000	-1,070086E-5
	88,300496	-19,162500	-5,671250	-19,163750	-5,675000	-8,620071E-6
	88,398499	-19,191250	-5,571250	-19,192500	-5,575000	-9,934754E-6
	88,520500	-19,217500	-5,477500	-19,218750	-5,481250	-8,828150E-6
	88,617504	-19,245000	-5,382500	-19,246250	-5,386250	-1,175545E-5
	88,713506	-19,272500	-5,285000	-19,273750	-5,288750	-1,329240E-5
	88,809505	-19,302500	-5,170000	-19,303750	-5,175000	-9,934754E-6
	88,933507	-19,327500	-5,078750	-19,328750	-5,083750	-1,125890E-5
	89,030509	-19,352500	-4,981250	-19,353750	-4,986250	-1,254521E-5
	89,128510	-19,377500	-4,886250	-19,378750	-4,890000	-1,082855E-5
	89,225514	-19,400000	-4,793750	-19,401250	-4,797500	-9,305787E-6
	89,348514	-19,423750	-4,696250	-19,425000	-4,701250	-1,165141E-5
	89,445515	-19,447500	-4,598750	-19,448750	-4,602500	-1,183584E-5
	89,543517	-19,470000	-4,500000	-19,471250	-4,505000	-1,078126E-5
	89,642519	-19,492500	-4,401250	-19,493750	-4,406250	-1,053062E-5
	89,764520	-19,515000	-4,306250	-19,515000	-4,310000	-1,131565E-5
	89,860522	-19,535000	-4,213750	-19,535000	-4,217500	-1,139131E-5
	89,961524	-19,560000	-4,091250	-19,561250	-4,095000	-1,076234E-5
	90,058523	-19,580000	-3,996250	-19,581250	-4,001250	-1,304649E-5
	90,159526	-19,600000	-3,897500	-19,601250	-3,902500	-1,129673E-5
	90,256528	-19,618750	-3,801250	-19,620000	-3,805000	-1,286205E-5
	90,355530	-19,641250	-3,683750	-19,641250	-3,687500	-1,377477E-5
	90,481531	-19,660000	-3,586250	-19,661250	-3,590000	-1,144806E-5
	90,577533	-19,676250	-3,488750	-19,677500	-3,492500	-1,392610E-5
	90,676536	-19,693750	-3,395000	-19,693750	-3,398750	-1,222363E-5
	90,776539	-19,715000	-3,271250	-19,715000	-3,275000	-1,422876E-5
	90,875535	-19,730000	-3,170000	-19,731250	-3,173750	-1,353358E-5
	90,974538	-19,745000	-3,077500	-19,746250	-3,081250	-1,370383E-5
	91,096541	-19,760000	-2,978750	-19,761250	-2,983750	-1,359033E-5
	91,191544	-19,785000	-2,811250	-19,786250	-2,815000	-1,371802E-5
	91,290544	-19,798750	-2,712500	-19,800000	-2,716250	-1,456925E-5
	91,391546	-19,812500	-2,611250	-19,813750	-2,616250	-1,456925E-5
	91,487547	-19,825000	-2,518750	-19,825000	-2,522500	-1,270599E-5
	91,584546	-19,836250	-2,422500	-19,837500	-2,426250	-1,301811E-5
	91,684551	-19,851250	-2,300000	-19,851250	-2,303750	-1,266816E-5
	91,783550	-19,862500	-2,198750	-19,863750	-2,203750	-1,378895E-5
	91,884552	-19,872500	-2,101250	-19,873750	-2,105000	-1,226619E-5
	91,983554	-19,883750	-2,001250	-19,883750	-2,006250	-1,321673E-5
	92,082554	-19,892500	-1,907500	-19,892500	-1,911250	-1,125417E-5
	92,203561	-19,902500	-1,807500	-19,902500	-1,812500	-1,257358E-5
	92,300559	-19,910000	-1,707500	-19,911250	-1,711250	-1,317890E-5
	92,399563	-19,918750	-1,611250	-19,918750	-1,615000	-1,186422E-5
	92,498562	-19,926250	-1,513750	-19,926250	-1,517500	-1,464019E-5
	92,620565	-19,933750	-1,412500	-19,933750	-1,417500	-1,570896E-5
	92,718565	-19,941250	-1,312500	-19,941250	-1,316250	-1,499487E-5
	92,817569	-19,947500	-1,213750	-19,947500	-1,217500	-1,586975E-5
	92,917570	-19,952500	-1,120000	-19,952500	-1,123750	-1,231348E-5
	93,040569	-19,958750	-0,995000	-19,960000	-1,000000	-1,459289E-5
	93,139571	-19,963750	-0,898750	-19,963750	-0,903750	-1,472058E-5
	93,238573	-19,967500	-0,800000	-19,967500	-0,803750	-1,529279E-5
	93,337573	-19,971250	-0,698750	-19,971250	-0,702500	-1,761477E-5
	93,505578	-19,975000	-0,603750	-19,975000	-0,608750	-1,389299E-5
	93,603579	-19,977500	-0,507500	-19,977500	-0,512500	-1,175072E-5
	93,704583	-19,980000	-0,385000	-19,980000	-0,388750	-1,276274E-5
	93,800584	-19,981250	-0,288750	-19,982500	-0,293750	-1,485299E-5
	93,896584	-19,982500	-0,195000	-19,982500	-0,198750	-1,356668E-5
	94,018585	-19,983750	-0,095000	-19,983750	-0,098750	-1,370855E-5
	94,119585	-19,983750	0,005000	-19,983750	0,001250	-1,511782E-5
	94,218586	-19,983750	0,103750	-19,983750	0,100000	-1,461181E-5
	94,317591	-19,982500	0,206250	-19,982500	0,202500	-1,504688E-5
	94,416591	-19,981250	0,300000	-19,981250	0,295000	-1,347210E-5
	94,514593	-19,980000	0,396250	-19,980000	0,391250	-1,318835E-5
	94,615596	-19,977500	0,515000	-19,977500	0,511250	-1,382205E-5
	94,711596	-19,975000	0,610000	-19,975000	0,606250	-1,372274E-5
	94,807598	-19,971250	0,710000	-19,971250	0,705000	-1,499013E-5
	94,908598	-19,967500	0,803750	-19,967500	0,800000	-1,437062E-5
	95,009600	-19,962500	0,931250	-19,961250	0,926250	-1,385988E-5
	95,108599	-19,957500	1,028750	-19,957500	1,025000	-1,315998E-5
	95,205606	-19,952500	1,130000	-19,951250	1,126250	-1,339170E-5
	95,327604	-19,946250	1,225000	-19,946250	1,221250	-1,439427E-5
	95,425606	-19,938750	1,345000	-19,938750	1,340000	-1,412471E-5
	95,524607	-19,931250	1,443750	-19,932500	1,438750	-1,450304E-5
	95,624609	-19,923750	1,545000	-19,923750	1,541250	-1,405850E-5
	95,720612	-19,916250	1,643750	-19,916250	1,638750	-1,423348E-5
	95,816613	-19,907500	1,743750	-19,907500	1,738750	-1,516511E-5
	95,938612	-19,900000	1,837500	-19,898750	1,832500	-1,662639E-5
	96,034616	-19,887500	1,961250	-19,887500	1,957500	-1,454087E-5
	96,130619	-19,877500	2,056250	-19,877500	2,052500	-1,474895E-5
	96,227618	-19,867500	2,155000	-19,867500	2,150000	-1,414363E-5
	96,331621	-19,856250	2,253750	-19,856250	2,250000	-1,465437E-5
	96,426622	-19,842500	2,375000	-19,842500	2,371250	-1,490501E-5
	96,529626	-19,831250	2,468750	-19,831250	2,463750	-1,492865E-5
	96,625625	-19,818750	2,568750	-19,818750	2,563750	-1,507998E-5
	96,721626	-19,805000	2,667500	-19,805000	2,663750	-1,404905E-5
	96,841628	-19,788750	2,791250	-19,788750	2,786250	-1,666895E-5
	96,936630	-19,775000	2,886250	-19,773750	2,882500	-1,471112E-5
	97,033630	-19,760000	2,983750	-19,760000	2,980000	-1,416254E-5
	97,132632	-19,745000	3,081250	-19,745000	3,077500	-1,466856E-5
	97,256637	-19,728750	3,186250	-19,728750	3,182500	-1,399230E-5
	97,355635	-19,712500	3,285000	-19,711250	3,281250	-1,378422E-5
	97,453640	-19,696250	3,382500	-19,696250	3,378750	-1,557181E-5
	97,551639	-19,678750	3,481250	-19,678750	3,477500	-1,630954E-5
	97,672641	-19,661250	3,580000	-19,661250	3,576250	-1,502324E-5
	97,770644	-19,642500	3,678750	-19,642500	3,675000	-1,400648E-5
	97,869647	-19,625000	3,773750	-19,623750	3,770000	-1,324037E-5
	97,970644	-19,606250	3,871250	-19,605000	3,866250	-1,213377E-5
	98,069649	-19,582500	3,993750	-19,581250	3,988750	-1,350520E-5
	98,165648	-19,561250	4,091250	-19,561250	4,083750	-1,469693E-5
	98,288651	-19,541250	4,190000	-19,540000	4,185000	-1,494757E-5
	98,386652	-19,520000	4,282500	-19,518750	4,278750	-1,353358E-5
	98,485656	-19,500000	4,375000	-19,498750	4,371250	-1,425713E-5
	98,582654	-19,472500	4,496250	-19,471250	4,491250	-1,414836E-5
	98,705657	-19,450000	4,590000	-19,450000	4,586250	-1,527861E-5
	98,802656	-19,428750	4,681250	-19,427500	4,676250	-1,549614E-5
	98,900661	-19,405000	4,782500	-19,403750	4,778750	-1,619132E-5
	98,998662	-19,380000	4,881250	-19,378750	4,877500	-1,613456E-5
	99,122663	-19,356250	4,973750	-19,355000	4,968750	-1,447466E-5
	99,221667	-19,331250	5,071250	-19,330000	5,066250	-1,327347E-5
	99,320665	-19,300000	5,190000	-19,298750	5,186250	-1,278165E-5
	99,419666	-19,275000	5,281250	-19,273750	5,277500	-1,436589E-5
	99,522670	-19,250000	5,372500	-19,247500	5,368750	-1,337278E-5
	99,623671	-19,222500	5,471250	-19,221250	5,465000	-1,188785E-5
	99,722672	-19,188750	5,585000	-19,187500	5,581250	-1,446520E-5
	99,822673	-19,162500	5,677500	-19,160000	5,673750	-1,294244E-5
	99,923673	-19,135000	5,767500	-19,132500	5,766250	-1,299919E-5
	100,023675	-19,106250	5,862500	-19,103750	5,858750	-1,444155E-5
	100,121678	-19,070000	5,977500	-19,068750	5,973750	-1,586028E-5
	100,220684	-19,041250	6,068750	-19,041250	6,067500	-1,513200E-5
	100,345681	-19,011250	6,162500	-19,010000	6,158750	-1,154736E-5
	100,443682	-18,980000	6,260000	-18,978750	6,256250	-1,278165E-5
	100,543684	-18,941250	6,378750	-18,938750	6,373750	-1,204864E-5
	100,639685	-18,907500	6,473750	-18,907500	6,468750	-1,171288E-5
	100,736689	-18,876250	6,566250	-18,875000	6,562500	-1,680136E-5
	100,856691	-18,845000	6,655000	-18,843750	6,651250	-1,146224E-5
	100,954690	-18,802500	6,773750	-18,801250	6,768750	-1,395919E-5
	101,050693	-18,768750	6,867500	-18,767500	6,862500	-1,202500E-5
	101,151692	-18,735000	6,956250	-18,735000	6,952500	-1,296135E-5
	101,254694	-18,701250	7,050000	-18,701250	7,041250	-1,303702E-5
	101,352696	-18,657500	7,162500	-18,656250	7,158750	-1,463072E-5
	101,451699	-18,622500	7,256250	-18,621250	7,252500	-1,449830E-5
	101,574700	-18,585000	7,350000	-18,583750	7,347500	-1,402067E-5
	101,671708	-18,551250	7,436250	-18,548750	7,432500	-1,201081E-5
	101,767702	-18,512500	7,531250	-18,511250	7,527500	-1,476313E-5
	101,865705	-18,467500	7,642500	-18,466250	7,638750	-1,498067E-5
	101,986707	-18,427500	7,732500	-18,427500	7,730000	-1,142913E-5
	102,082709	-18,391250	7,825000	-18,388750	7,821250	-1,453141E-5
	102,178710	-18,351250	7,917500	-18,348750	7,913750	-1,346263E-5
	102,276712	-18,311250	8,008750	-18,308750	8,005000	-1,376530E-5
	102,395720	-18,271250	8,097500	-18,271250	8,096250	-1,392608E-5
	102,493713	-18,232500	8,187500	-18,230000	8,183750	-1,346263E-5
	102,591715	-18,191250	8,282500	-18,187500	8,278750	-1,385988E-5
	102,690720	-18,137500	8,396250	-18,137500	8,388750	-1,181219E-5
	102,816719	-18,096250	8,483750	-18,095000	8,480000	-1,219524E-5
	102,915723	-18,053750	8,573750	-18,052500	8,570000	-1,539683E-5
	103,014722	-18,010000	8,665000	-18,008750	8,662500	-1,259249E-5
	103,110725	-17,937500	8,816250	-17,935000	8,812500	-1,107918E-5
	103,234725	-17,895000	8,902500	-17,893750	8,898750	-1,414362E-5
	103,332727	-17,851250	8,992500	-17,848750	8,986250	-1,392608E-5
	103,430728	-17,807500	9,076250	-17,805000	9,072500	-1,074342E-5
	103,528728	-17,751250	9,187500	-17,748750	9,183750	-1,213849E-5
	103,650731	-17,703750	9,276250	-17,702500	9,272500	-1,353357E-5
	103,750734	-17,660000	9,360000	-17,658750	9,356250	-1,082854E-5
	103,850735	-17,612500	9,448750	-17,610000	9,445000	-9,703021E-6
	103,946738	-17,552500	9,558750	-17,551250	9,555000	-1,150480E-5
	104,044738	-17,507500	9,642500	-17,506250	9,638750	-1,322145E-5
	104,166742	-17,458750	9,730000	-17,456250	9,726250	-9,419276E-6
	104,265741	-17,410000	9,816250	-17,408750	9,812500	-9,598981E-6
	104,366747	-17,350000	9,925000	-17,347500	9,921250	-1,132509E-5
	104,465745	-17,301250	10,007500	-17,300000	10,003750	-1,276273E-5
	104,562746	-17,253750	10,091250	-17,251250	10,086250	-1,156628E-5
	104,663746	-17,206250	10,171250	-17,202500	10,170000	-1,065829E-5
	104,762748	-17,142500	10,278750	-17,138750	10,277500	-8,516023E-6
	104,861749	-17,091250	10,365000	-17,088750	10,361250	-9,485464E-6
	104,987751	-17,042500	10,445000	-17,037500	10,441250	-8,151866E-6
	105,086753	-16,987500	10,531250	-16,985000	10,527500	-8,960537E-6
	105,186754	-16,922500	10,637500	-16,921250	10,633750	-1,106497E-5
	105,283756	-16,871250	10,718750	-16,868750	10,715000	-1,235601E-5
	105,454758	-16,820000	10,796250	-16,817500	10,795000	-1,079542E-5
	105,551760	-16,767500	10,880000	-16,762500	10,877500	-7,612753E-6
	105,649761	-16,701250	10,985000	-16,698750	10,978750	-8,690980E-6
	105,747763	-16,646250	11,065000	-16,643750	11,061250	-1,156625E-5
	105,870765	-16,590000	11,150000	-16,587500	11,146250	-6,993245E-6
	105,968767	-16,533750	11,231250	-16,533750	11,225000	-1,067246E-5
	106,067768	-16,465000	11,333750	-16,463750	11,330000	-9,130784E-6
	106,166771	-16,407500	11,417500	-16,407500	11,410000	-9,982016E-6
	106,289772	-16,352500	11,495000	-16,350000	11,491250	-8,426152E-6
	106,388773	-16,296250	11,576250	-16,291250	11,575000	-9,537483E-6
	106,484774	-16,221250	11,678750	-16,218750	11,677500	-1,023739E-5
	106,583777	-16,162500	11,760000	-16,160000	11,756250	-1,043601E-5
	106,708778	-16,107500	11,835000	-16,105000	11,832500	-8,861227E-6
	106,804779	-16,047500	11,917500	-16,045000	11,913750	-7,612753E-6
	106,901782	-15,973750	12,016250	-15,971250	12,012500	-7,333738E-6
	106,997782	-15,917500	12,092500	-15,912500	12,090000	-8,085659E-6
	107,120785	-15,856250	12,171250	-15,852500	12,170000	-8,255906E-6
	107,220785	-15,795000	12,251250	-15,792500	12,247500	-6,487234E-6
	107,317787	-15,721250	12,346250	-15,718750	12,342500	-4,761124E-6
	107,416791	-15,658750	12,423750	-15,658750	12,416250	-8,941621E-6
	107,539792	-15,600000	12,500000	-15,597500	12,496250	-8,516005E-6
	107,634790	-15,536250	12,576250	-15,533750	12,572500	-8,341029E-6
	107,731793	-15,457500	12,673750	-15,455000	12,670000	-8,019453E-6
	107,830795	-15,396250	12,750000	-15,395000	12,746250	-8,043098E-6
	107,952797	-15,333750	12,826250	-15,331250	12,823750	-4,969203E-6
	108,053798	-15,270000	12,902500	-15,267500	12,897500	-6,964870E-6
	108,151801	-15,202500	12,978750	-15,202500	12,973750	-3,692355E-6
	108,249801	-15,136250	13,055000	-15,132500	13,053750	-8,128221E-6
	108,372804	-15,073750	13,128750	-15,071250	13,125000	-5,375903E-6
	108,473805	-15,008750	13,202500	-15,006250	13,200000	-5,290780E-6
	108,572806	-14,926250	13,297500	-14,923750	13,293750	-2,339841E-6
	108,671809	-14,858750	13,372500	-14,855000	13,370000	-9,319946E-6
	108,798810	-14,792500	13,446250	-14,790000	13,442500	-9,679356E-6
	108,894812	-14,727500	13,516250	-14,725000	13,513750	-4,827331E-6
	108,992812	-14,612500	13,641250	-14,608750	13,638750	-5,579253E-6
	109,091815	-14,545000	13,715000	-14,541250	13,711250	-3,134325E-6
	109,215816	-14,478750	13,786250	-14,475000	13,780000	-6,132554E-6
	109,311820	-14,406250	13,857500	-14,403750	13,855000	-5,905559E-6
	109,409818	-14,340000	13,926250	-14,337500	13,925000	-5,262406E-6
	109,508823	-14,270000	13,998750	-14,267500	13,996250	-1,843289E-6
	109,630822	-14,185000	14,085000	-14,182500	14,081250	-5,621815E-6
	109,727823	-14,117500	14,155000	-14,112500	14,152500	-5,371174E-6
	109,826827	-14,047500	14,221250	-14,045000	14,220000	-1,767624E-6
	109,925830	-13,977500	14,292500	-13,973750	14,288750	-5,191470E-6
	110,048831	-13,905000	14,362500	-13,901250	14,357500	-4,070680E-6
	110,147832	-13,832500	14,432500	-13,830000	14,428750	-2,552650E-6
	110,247835	-13,765000	14,496250	-13,761250	14,493750	-6,704772E-6
	110,347832	-13,675000	14,582500	-13,671250	14,580000	-3,200532E-6
	110,447834	-13,605000	14,647500	-13,601250	14,643750	-3,701813E-6
	110,549836	-13,531250	14,715000	-13,528750	14,712500	-1,928413E-6
	110,646838	-13,460000	14,780000	-13,457500	14,777500	-5,636002E-6
	110,745840	-13,368750	14,863750	-13,365000	14,861250	-1,427127E-6
	110,870842	-13,297500	14,927500	-13,295000	14,925000	-2,543186E-6
	110,969841	-13,223750	14,992500	-13,218750	14,991250	-4,874615E-6
	111,068843	-13,148750	15,058750	-13,145000	15,056250	1,523814E-8
	111,167845	-13,057500	15,138750	-13,053750	15,135000	-5,465748E-6
	111,336849	-12,980000	15,203750	-12,977500	15,200000	-1,786535E-7
	111,434850	-12,908750	15,265000	-12,905000	15,262500	-9,778655E-7
	111,533851	-12,831250	15,330000	-12,827500	15,327500	-2,443876E-6
	111,633855	-12,740000	15,406250	-12,737500	15,403750	-1,072447E-6
	111,732855	-12,667500	15,466250	-12,663750	15,463750	-2,505353E-6
	111,829854	-12,588750	15,528750	-12,586250	15,527500	-2,259442E-6
	111,951859	-12,511250	15,592500	-12,508750	15,590000	-2,699245E-6
	112,049860	-12,437500	15,651250	-12,435000	15,648750	-1,219048E-6
	112,146860	-12,360000	15,712500	-12,353750	15,712500	-6,799344E-7
	112,245863	-12,280000	15,776250	-12,277500	15,772500	-1,346733E-6
	112,347864	-12,205000	15,833750	-12,202500	15,831250	1,887948E-6
	112,444864	-12,126250	15,896250	-12,121250	15,892500	-3,200526E-6
	112,540865	-12,045000	15,953750	-12,042500	15,953750	1,571101E-7
	112,663870	-11,966250	16,015000	-11,963750	16,012500	-1,644664E-6
	112,761871	-11,888750	16,072500	-11,885000	16,071250	2,795928E-6
	112,858871	-11,790000	16,146250	-11,786250	16,143750	-3,205255E-7
	112,956873	-11,707500	16,205000	-11,705000	16,202500	-2,637767E-7
	113,079876	-11,631250	16,260000	-11,628750	16,257500	4,361249E-7
	113,176875	-11,551250	16,317500	-11,547500	16,315000	-7,603285E-7
	113,274877	-11,452500	16,387500	-11,448750	16,385000	1,065091E-6
	113,373884	-11,370000	16,445000	-11,366250	16,442500	2,914155E-6
	113,497883	-11,287500	16,501250	-11,283750	16,498750	2,162234E-6
	113,594882	-11,208750	16,555000	-11,206250	16,552500	3,481643E-6
	113,691886	-11,105000	16,625000	-11,102500	16,623750	2,564204E-6
	113,788887	-11,026250	16,677500	-11,023750	16,675000	6,631200E-7
	113,911891	-10,947500	16,730000	-10,943750	16,728750	3,405978E-6
	114,007889	-10,858750	16,787500	-10,855000	16,785000	2,450707E-6
	114,104889	-10,775000	16,841250	-10,772500	16,838750	5,165190E-7
	114,205895	-10,696250	16,892500	-10,692500	16,890000	-1,833826E-7
	114,302893	-10,588750	16,958750	-10,585000	16,956250	2,838490E-6
	114,399894	-10,508750	17,008750	-10,505000	17,006250	4,630805E-6
	114,500896	-10,423750	17,061250	-10,420000	17,058750	1,334647E-6
	114,597898	-10,342500	17,110000	-10,338750	17,108750	1,802825E-6
	114,694899	-10,238750	17,172500	-10,233750	17,171250	1,694056E-6
	114,796902	-10,151250	17,225000	-10,147500	17,222500	6,342735E-6
	114,895903	-10,067500	17,273750	-10,063750	17,272500	3,330313E-6
	114,992903	-9,980000	17,325000	-9,977500	17,322500	2,138588E-6
	115,115908	-9,895000	17,373750	-9,891250	17,372500	4,857801E-6
	115,214906	-9,790000	17,432500	-9,786250	17,431250	5,543518E-6
	115,312908	-9,697500	17,485000	-9,693750	17,482500	4,796323E-6
	115,411911	-9,613750	17,530000	-9,610000	17,528750	4,531495E-6
	115,532911	-9,527500	17,577500	-9,523750	17,576250	2,029820E-6
	115,629913	-9,372500	17,660000	-9,372500	17,657500	3,160066E-6
	115,728919	-9,290000	17,705000	-9,286250	17,703750	4,782135E-6
	115,825916	-9,203750	17,750000	-9,200000	17,747500	5,491498E-6
	115,948917	-9,113750	17,796250	-9,110000	17,795000	4,739574E-6
	116,046922	-9,007500	17,850000	-9,003750	17,848750	3,259377E-6
	116,142921	-8,920000	17,895000	-8,916250	17,892500	2,450707E-6
	116,244922	-8,833750	17,937500	-8,830000	17,936250	5,623913E-6
	116,343923	-8,745000	17,981250	-8,741250	17,980000	3,614056E-6
	116,442928	-8,637500	18,032500	-8,633750	18,031250	2,564204E-6
	116,564928	-8,546250	18,076250	-8,542500	18,075000	5,387458E-6
	116,663928	-8,460000	18,117500	-8,456250	18,115000	9,005214E-6
	116,758931	-8,373750	18,157500	-8,370000	18,155000	4,172086E-6
	116,854933	-8,261250	18,208750	-8,256250	18,206250	4,564599E-6
	116,975935	-8,173750	18,248750	-8,170000	18,246250	6,730521E-6
	117,075935	-8,087500	18,287500	-8,083750	18,285000	8,868070E-6
	117,177940	-7,995000	18,327500	-7,992500	18,326250	5,699578E-6
	117,275939	-7,881250	18,376250	-7,876250	18,375000	4,919278E-6
	117,373943	-7,792500	18,415000	-7,788750	18,413750	4,597702E-6
	117,495942	-7,706250	18,450000	-7,702500	18,448750	4,881446E-6
	117,599942	-7,612500	18,490000	-7,608750	18,487500	6,905498E-6
	117,698945	-7,502500	18,535000	-7,498750	18,533750	6,905498E-6
	117,795945	-7,408750	18,572500	-7,405000	18,571250	5,742141E-6
	117,967949	-7,317500	18,608750	-7,313750	18,607500	8,243831E-6
	118,063950	-7,223750	18,646250	-7,220000	18,643750	7,056829E-6
	118,161952	-7,107500	18,690000	-7,103750	18,688750	6,896039E-6
	118,260954	-7,018750	18,723750	-7,015000	18,722500	6,565003E-6
	118,382957	-6,925000	18,758750	-6,921250	18,757500	9,525416E-6
	118,480958	-6,830000	18,793750	-6,826250	18,792500	6,191404E-6
	118,576958	-6,717500	18,833750	-6,713750	18,832500	5,831993E-6
	118,674958	-6,628750	18,866250	-6,625000	18,863750	6,522441E-6
	118,797962	-6,532500	18,900000	-6,527500	18,897500	6,924414E-6
	118,894962	-6,440000	18,931250	-6,433750	18,930000	1,011655E-5
	118,990964	-6,345000	18,963750	-6,341250	18,962500	1,027261E-5
	119,086967	-6,252500	18,993750	-6,250000	18,992500	7,491905E-6
	119,209972	-6,158750	19,025000	-6,155000	19,022500	8,872801E-6
	119,304969	-6,046250	19,060000	-6,042500	19,060000	6,749438E-6
	119,400970	-5,950000	19,091250	-5,947500	19,090000	8,622159E-6
	119,499972	-5,858750	19,120000	-5,853750	19,117500	6,739979E-6
	119,623975	-5,762500	19,147500	-5,758750	19,146250	8,669450E-6
	119,720975	-5,650000	19,182500	-5,645000	19,181250	1,011655E-5
	119,817976	-5,556250	19,210000	-5,552500	19,208750	9,076152E-6
	119,916979	-5,460000	19,237500	-5,456250	19,236250	8,097229E-6
	120,037981	-5,368750	19,262500	-5,363750	19,262500	7,950627E-6
	120,136983	-5,250000	19,296250	-5,246250	19,295000	1,353096E-5
	120,235982	-5,152500	19,322500	-5,150000	19,321250	9,747683E-6
	120,334984	-5,061250	19,346250	-5,057500	19,345000	6,758896E-6
	120,458986	-4,963750	19,372500	-4,958750	19,370000	9,842265E-6
	120,557989	-4,843750	19,402500	-4,840000	19,401250	1,205548E-5
	120,655994	-4,746250	19,426250	-4,742500	19,425000	8,390433E-6
	120,754991	-4,652500	19,448750	-4,648750	19,447500	7,610133E-6
	120,876994	-4,555000	19,472500	-4,551250	19,471250	9,951034E-6
	120,972995	-4,440000	19,498750	-4,436250	19,497500	9,846994E-6
	121,070996	-4,341250	19,521250	-4,337500	19,520000	8,012106E-6
	121,169998	-4,250000	19,541250	-4,246250	19,540000	9,288961E-6
	121,271000	-4,155000	19,561250	-4,151250	19,560000	1,059419E-5
	121,366001	-4,031250	19,587500	-4,027500	19,586250	8,745115E-6
	121,465001	-3,941250	19,606250	-3,936250	19,605000	1,255204E-5
	121,588007	-3,843750	19,625000	-3,840000	19,625000	1,159203E-5
	121,687006	-3,745000	19,645000	-3,741250	19,643750	9,374085E-6
	121,784007	-3,627500	19,667500	-3,622500	19,666250	1,167242E-5
	121,879009	-3,533750	19,683750	-3,528750	19,682500	1,153528E-5
	121,999010	-3,435000	19,701250	-3,430000	19,700000	9,846994E-6
	122,097012	-3,335000	19,718750	-3,331250	19,717500	1,315263E-5
	122,195017	-3,212500	19,740000	-3,208750	19,738750	1,312898E-5
	122,294014	-3,117500	19,755000	-3,113750	19,753750	1,197036E-5
	122,418016	-3,025000	19,770000	-3,021250	19,767500	8,806593E-6
	122,516019	-2,926250	19,783750	-2,921250	19,782500	1,260878E-5
	122,613020	-2,807500	19,801250	-2,803750	19,800000	1,135085E-5
	122,712020	-2,715000	19,815000	-2,710000	19,813750	1,296820E-5
	122,836023	-2,613750	19,827500	-2,608750	19,827500	1,034828E-5
	122,935027	-2,515000	19,840000	-2,511250	19,840000	8,910633E-6
	123,034025	-2,397500	19,855000	-2,393750	19,855000	9,936847E-6
	123,132030	-2,298750	19,867500	-2,295000	19,866250	1,201765E-5
	123,253029	-2,203750	19,877500	-2,200000	19,877500	1,085429E-5
	123,350033	-2,107500	19,888750	-2,103750	19,887500	1,097725E-5
	123,446032	-1,983750	19,901250	-1,980000	19,900000	1,233450E-5
	123,542034	-1,885000	19,910000	-1,881250	19,910000	1,402278E-5
	123,666036	-1,785000	19,920000	-1,780000	19,920000	8,745115E-6
	123,764036	-1,686250	19,928750	-1,681250	19,927500	1,146434E-5
	123,863040	-1,591250	19,936250	-1,586250	19,936250	9,255857E-6
	123,959040	-1,446250	19,947500	-1,442500	19,947500	1,231085E-5
	124,080040	-1,350000	19,955000	-1,347500	19,953750	1,222573E-5
	124,178044	-1,252500	19,961250	-1,248750	19,960000	1,085429E-5
	124,276045	-1,156250	19,966250	-1,152500	19,966250	1,072188E-5
	124,375046	-1,032500	19,973750	-1,028750	19,973750	1,394712E-5
	124,499048	-0,936250	19,978750	-0,931250	19,977500	1,456663E-5
	124,596049	-0,843750	19,982500	-0,838750	19,982500	1,005980E-5
	124,692053	-0,742500	19,986250	-0,737500	19,986250	1,259460E-5
	124,790052	-0,621250	19,991250	-0,617500	19,991250	1,261351E-5
	124,912058	-0,527500	19,993750	-0,523750	19,993750	1,291618E-5
	125,006572	-0,427500	19,996250	-0,423750	19,996250	1,239598E-5
	125,104573	-0,327500	19,997500	-0,323750	19,997500	1,512466E-5
	125,204574	-0,207500	20,000000	-0,203750	20,000000	1,443894E-5
	125,327578	0,000000	0,000000	0,000000	0,000000	1,246218E-5
	125,422579	0,000000	0,000000	0,000000	0,000000	1,166770E-5
	125,520580	0,000000	0,000000	0,000000	0,000000	1,370121E-5
	125,615582	0,000000	0,000000	0,000000	0,000000	1,385726E-5
	125,740582	0,000000	0,000000	0,000000	0,000000	1,170079E-5
	125,839584	0,000000	0,000000	0,000000	0,000000	1,209804E-5
	125,941587	0,000000	0,000000	0,000000	0,000000	1,069823E-5
	126,037587	0,000000	0,000000	0,000000	0,000000	1,382888E-5
	126,134589	0,000000	0,000000	0,000000	0,000000	1,096306E-5
	126,279590	0,000000	0,000000	0,000000	0,000000	1,131774E-5
	126,376594	0,000000	0,000000	0,000000	0,000000	1,171971E-5
	126,475595	0,000000	0,000000	0,000000	0,000000	1,126099E-5
	126,571595	0,000000	0,000000	0,000000	0,000000	1,299184E-5
	126,693597	0,000000	0,000000	0,000000	0,000000	1,221154E-5
	126,790599	0,000000	0,000000	0,000000	0,000000	1,243380E-5
	126,887600	0,000000	0,000000	0,000000	0,000000	1,416938E-5
	126,983603	0,000000	0,000000	0,000000	0,000000	1,031044E-5
	127,104603	0,000000	0,000000	0,000000	0,000000	1,297292E-5
	127,200607	0,000000	0,000000	0,000000	0,000000	1,257568E-5
	127,299605	0,000000	0,000000	0,000000	0,000000	1,254257E-5
	127,397609	0,000000	0,000000	0,000000	0,000000	1,241962E-5
	127,520609	0,000000	0,000000	0,000000	0,000000	1,435854E-5
	127,520609	0,000000	0,000000	0,000000	0,000000	8,163434E-6
	127,610612	0,000000	0,000000	0,000000	0,000000	-1,337272E-6
	127,699613	0,000000	0,000000	0,000000	0,000000	-1,285252E-6
	127,812614	0,000000	0,000000	0,000000	0,000000	-1,975677E-7
	127,901615	0,000000	0,000000	0,000000	0,000000	2,375061E-7
	127,990618	0,000000	0,000000	0,000000	0,000000	6,111021E-7
	128,078619	0,000000	0,000000	0,000000	0,000000	5,638114E-7
	128,190620	0,000000	0,000000	0,000000	0,000000	-5,900799E-7
	128,279622	0,000000	0,000000	0,000000	0,000000	-3,110652E-7
	128,368623	0,000000	0,000000	0,000000	0,000000	-4,623952E-7
	128,458624	0,000000	0,000000	0,000000	0,000000	-6,042487E-8
	128,572626	0,000000	0,000000	0,000000	0,000000	3,320874E-7
	128,662627	0,000000	0,000000	0,000000	0,000000	-3,676119E-9
	128,751628	0,000000	0,000000	0,000000	0,000000	2,138608E-7
	128,840631	0,000000	0,000000	0,000000	0,000000	-3,063361E-7
	128,954632	0,000000	0,000000	0,000000	0,000000	5,307264E-8
	129,044634	0,000000	0,000000	0,000000	0,000000	-1,644643E-7
	129,133634	0,000000	0,000000	0,000000	0,000000	-3,725430E-7
	129,222636	0,000000	0,000000	0,000000	0,000000	-3,725430E-7
	129,336639	0,000000	0,000000	0,000000	0,000000	-4,860405E-7
	129,423639	0,000000	0,000000	0,000000	0,000000	-5,427893E-7
	129,513640	0,000000	0,000000	0,000000	0,000000	-3,110652E-7
	129,601642	0,000000	0,000000	0,000000	0,000000	-1,408189E-7
